[Main]
Experiment = "IvsV"
Header length = 32    
Date = "20201030 15:43:24"
Comments = ""

[System]
System = "PPMS"
Magnet stability range (G) = 5.000000E+1
Magnet check interval (s) = 1.000000E+0
Magnet approach mode = "Linear Approach"
Magnet mode = "Persistent"
Temperature stability time (s) = 1.000000E+0
Temperature approach mode = "Fast Settle"

[Dynamic Voltage]
Voltage source = "Keithley 6430"
GPIB = "GPIB0::9::INSTR"
Initial Voltage (V) = -10.000000E+0
Final Voltage (V) = 10.000000E+0
Voltage step (V) = 1.000000E+0
Number of measurement sequences = 1.000000E+0
Samples/sequence = 30.000000E+0
Pre-measuement delay (s) = 1.000000E+0
Current limit (A) = 100.000000E-6
Auto-range = 0
Manual range (V) = 10.000000E+0
Measurement Type = "Static"
Pattern = "Linear"
Check compliance = 0
Measurement Speed = 1.000000
Time (s)	Voltage 1 (V)	Current (A)	STD_Current (A)	Resistance 1 (Ohms)	STD_Resistance 1 (Ohms)
0.000000000E+0	-10.000000000E+0	-1.667318467E-9	559.322535282E-12	5.997654437E+9	2.011987123E+9
7.456924915E+0	-9.000000000E+0	-1.434527963E-9	950.776371430E-12	6.273840755E+9	4.158175860E+9
13.805799007E+0	-8.000000000E+0	-1.188203100E-9	1.093643161E-9	6.732855688E+9	6.197039524E+9
20.002103806E+0	-7.000000000E+0	-1.539077327E-9	1.195770852E-9	4.548179535E+9	3.533662945E+9
28.365627766E+0	-6.000000000E+0	-1.668523037E-9	1.071408617E-9	3.595994702E+9	2.309095904E+9
37.934763432E+0	-5.000000000E+0	-1.615477767E-9	1.283194291E-9	3.095059618E+9	2.458444750E+9
49.736761570E+0	-4.000000000E+0	-1.504476257E-9	1.251145385E-9	2.658732554E+9	2.211042514E+9
61.535374641E+0	-3.000000000E+0	-1.035770208E-9	1.212286279E-9	2.896395335E+9	3.389999340E+9
75.393488884E+0	-2.000000000E+0	-666.818734333E-12	2.188107246E-9	2.999315852E+9	9.841992148E+9
90.838461399E+0	-1.000000000E+0	488.927426667E-12	2.019368330E-9	-2.045293321E+9	8.447471614E+9
109.895436764E+0	0.000000000E+0	301.698182600E-12	1.900786017E-9	0.000000000E+0	0.000000000E+0
130.656179905E+0	1.000000000E+0	1.158013799E-9	1.397015957E-9	863.547567892E+6	1.041774919E+9
150.758651257E+0	2.000000000E+0	1.117942410E-9	1.563611736E-9	1.789000920E+9	2.502188672E+9
164.354249477E+0	3.000000000E+0	1.422022943E-9	1.341702131E-9	2.109670603E+9	1.990509053E+9
177.238107204E+0	4.000000000E+0	1.766899093E-9	1.380023921E-9	2.263853106E+9	1.768166304E+9
189.069327354E+0	5.000000000E+0	1.862302343E-9	1.434468448E-9	2.684848686E+9	2.068048049E+9
200.452278614E+0	6.000000000E+0	1.589923270E-9	1.174146312E-9	3.773767020E+9	2.786898407E+9
211.069949627E+0	7.000000000E+0	1.617355980E-9	1.013760190E-9	4.328051515E+9	2.712826601E+9
218.506571770E+0	8.000000000E+0	1.619789710E-9	950.368858304E-12	4.938912718E+9	2.897776676E+9
226.325705528E+0	9.000000000E+0	1.924625300E-9	977.178971799E-12	4.676234901E+9	2.374237943E+9
233.171795368E+0	10.000000000E+0	2.061971887E-9	1.043364460E-9	4.849726645E+9	2.453977407E+9
