#Acq. time (s)=	30
#Accumulations=	2
#Range (eV)=	2...1
#Windows=	9
#Auto scanning=	Off
#Autofocus=	Off
#Macrospot=	Off
#AutoExposure=	Off
#Spike filter=	Multiple accum.
#Delay time (s)=	0
#Binning=	1
#Readout mode=	Signal
#DeNoise=	Off
#ICS correction=	Off
#Dark correction=	Off
#Inst. Process=	Off
#Detector temperature (°C)=	-89.82
#Instrument=	LabRAM HR Evol
#Detector=	Synapse/Water Cooled
#Objective=	x100_VIS
#Grating=	600 (500nm)
#ND Filter=	25%
#Laser=	488 nm ULF
#Hole=	49.98
#Range=	Visible
#StageXY=	Marzhauser
#StageZ=	Marzhauser
#X (µm)=	149.7
#Y (µm)=	-127.1
#Z (µm)=	-5.9
#Full time(mm:ss)=	10:09
#Project=	InSe
#Sample=	MBE2-200307A-MH
#Site=	
#Title=	03-center_PL_MBE2-200307A-MH_19_16_55_2020_05_13_488 nm ULF_600 (500nm)_25%
#Remark=	
#Date=	13.05.2020 19:17
#Acquired=	13.05.2020 19:17:53
1.30001	-1044.52
1.30008	-1044.04
1.30015	-1043.56
1.30021	-1043.08
1.30028	-1042.61
1.30035	-1042.13
1.30042	-1041.65
1.30049	-1041.17
1.30056	-1040.69
1.30062	-1040.21
1.30069	-1039.73
1.30076	-1039.25
1.30083	-1038.77
1.3009	-1038.29
1.30097	-1037.82
1.30104	-1037.34
1.3011	-1036.86
1.30117	-1036.38
1.30124	-1035.9
1.30131	-1035.42
1.30138	-1034.94
1.30145	-1034.46
1.30152	-1033.98
1.30158	-1033.51
1.30165	-1033.03
1.30172	-1032.55
1.30179	-1032.07
1.30186	-1031.59
1.30193	-1031.11
1.302	-1030.63
1.30206	-1030.15
1.30213	-1029.67
1.3022	-1029.19
1.30227	-1028.72
1.30234	-1028.24
1.30241	-1027.76
1.30248	-1027.28
1.30255	-1026.8
1.30261	-1026.32
1.30268	-1025.84
1.30275	-1025.36
1.30282	-1024.88
1.30289	-1024.41
1.30296	-1023.93
1.30303	-1023.45
1.3031	-1022.97
1.30316	-1022.49
1.30323	-1022.01
1.3033	-1021.53
1.30337	-1021.05
1.30344	-1020.57
1.30351	-1020.09
1.30358	-1019.62
1.30365	-1019.14
1.30371	-1018.66
1.30378	-1018.18
1.30385	-1017.7
1.30392	-1017.22
1.30399	-1016.74
1.30406	-1016.26
1.30413	-1015.78
1.3042	-1015.31
1.30427	-1014.83
1.30433	-1014.35
1.3044	-1013.87
1.30447	-1013.39
1.30454	-1012.91
1.30461	-1012.43
1.30468	-1011.95
1.30475	-1011.47
1.30482	-1010.99
1.30489	-1010.52
1.30496	-1010.04
1.30502	-1009.56
1.30509	-1009.08
1.30516	-1008.6
1.30523	-1008.12
1.3053	-1007.64
1.30537	-1007.16
1.30544	-1006.68
1.30551	-1006.21
1.30558	-1005.73
1.30565	-1005.25
1.30571	-1004.77
1.30578	-1004.29
1.30585	-1003.81
1.30592	-1003.33
1.30599	-1002.85
1.30606	-1002.37
1.30613	-1001.9
1.3062	-1001.42
1.30627	-1000.94
1.30634	-1000.46
1.30641	-999.979
1.30648	-999.5
1.30654	-999.021
1.30661	-998.542
1.30668	-998.063
1.30675	-997.585
1.30682	-997.106
1.30689	-996.627
1.30696	-996.148
1.30703	-995.669
1.3071	-995.19
1.30717	-994.711
1.30724	-994.232
1.30731	-993.753
1.30738	-993.274
1.30744	-992.795
1.30751	-992.316
1.30758	-991.837
1.30765	-991.358
1.30772	-990.879
1.30779	-990.4
1.30786	-989.921
1.30793	-989.442
1.308	-988.964
1.30807	-988.485
1.30814	-988.006
1.30821	-987.527
1.30828	-987.048
1.30835	-986.569
1.30842	-986.09
1.30849	-985.611
1.30855	-985.132
1.30862	-984.653
1.30869	-984.174
1.30876	-983.695
1.30883	-983.216
1.3089	-982.737
1.30897	-982.258
1.30904	-981.779
1.30911	-981.3
1.30918	-980.821
1.30925	-980.343
1.30932	-979.864
1.30939	-979.385
1.30946	-978.906
1.30953	-978.427
1.3096	-977.948
1.30967	-977.469
1.30974	-976.99
1.30981	-976.511
1.30988	-976.032
1.30995	-975.553
1.31001	-975.074
1.31008	-974.595
1.31015	-974.116
1.31022	-973.637
1.31029	-973.158
1.31036	-972.679
1.31043	-972.2
1.3105	-971.721
1.31057	-971.243
1.31064	-970.764
1.31071	-970.285
1.31078	-969.806
1.31085	-969.327
1.31092	-968.848
1.31099	-968.369
1.31106	-967.89
1.31113	-967.411
1.3112	-966.932
1.31127	-966.453
1.31134	-965.974
1.31141	-965.495
1.31148	-965.016
1.31155	-964.537
1.31162	-964.058
1.31169	-963.579
1.31176	-963.101
1.31183	-962.622
1.3119	-962.143
1.31197	-961.664
1.31204	-961.185
1.31211	-960.706
1.31218	-960.227
1.31225	-959.748
1.31232	-959.269
1.31239	-958.79
1.31246	-958.311
1.31253	-957.832
1.3126	-957.353
1.31267	-956.874
1.31274	-956.395
1.31281	-955.916
1.31288	-955.437
1.31295	-954.958
1.31302	-954.479
1.31309	-954.001
1.31316	-953.522
1.31323	-953.043
1.3133	-952.564
1.31337	-952.085
1.31344	-951.606
1.31351	-951.127
1.31358	-950.648
1.31365	-950.169
1.31372	-949.69
1.31379	-949.211
1.31386	-948.732
1.31393	-948.253
1.314	-947.774
1.31407	-947.295
1.31414	-946.816
1.31421	-946.337
1.31428	-945.859
1.31435	-945.38
1.31442	-944.901
1.31449	-944.422
1.31456	-943.943
1.31463	-943.464
1.3147	-942.985
1.31477	-942.506
1.31484	-942.027
1.31491	-941.548
1.31498	-941.069
1.31505	-940.59
1.31512	-940.111
1.31519	-939.632
1.31526	-939.153
1.31533	-938.674
1.3154	-938.195
1.31547	-937.716
1.31554	-937.237
1.31561	-936.759
1.31568	-936.28
1.31575	-935.801
1.31582	-935.322
1.31589	-934.843
1.31596	-934.364
1.31603	-933.885
1.3161	-933.406
1.31617	-932.927
1.31624	-932.448
1.31631	-931.969
1.31638	-931.49
1.31645	-931.011
1.31652	-930.532
1.3166	-930.053
1.31667	-929.574
1.31674	-929.095
1.31681	-928.617
1.31688	-928.138
1.31695	-927.659
1.31702	-927.18
1.31709	-926.701
1.31716	-926.222
1.31723	-925.743
1.3173	-925.264
1.31737	-924.785
1.31744	-924.306
1.31751	-923.827
1.31758	-923.348
1.31765	-922.869
1.31772	-922.39
1.31779	-921.911
1.31786	-921.432
1.31793	-920.953
1.318	-920.474
1.31808	-919.995
1.31815	-919.517
1.31822	-919.038
1.31829	-918.559
1.31836	-918.08
1.31843	-917.601
1.3185	-917.122
1.31857	-916.643
1.31864	-916.164
1.31871	-915.685
1.31878	-915.206
1.31885	-914.727
1.31892	-914.248
1.31899	-913.769
1.31906	-913.29
1.31913	-912.811
1.31921	-912.332
1.31928	-911.853
1.31935	-911.375
1.31942	-910.896
1.31949	-910.417
1.31956	-909.938
1.31963	-909.459
1.3197	-908.98
1.31977	-908.501
1.31984	-908.022
1.31991	-907.543
1.31998	-907.064
1.32005	-906.585
1.32013	-906.106
1.3202	-905.627
1.32027	-905.148
1.32034	-904.669
1.32041	-904.19
1.32048	-903.711
1.32055	-903.232
1.32062	-902.754
1.32069	-902.275
1.32076	-901.796
1.32083	-901.317
1.3209	-900.838
1.32098	-900.359
1.32105	-899.88
1.32112	-899.401
1.32119	-898.922
1.32126	-898.443
1.32133	-897.964
1.3214	-897.485
1.32147	-897.006
1.32154	-896.527
1.32161	-896.048
1.32169	-895.569
1.32176	-895.09
1.32183	-894.611
1.3219	-894.133
1.32197	-893.654
1.32204	-893.175
1.32211	-892.696
1.32218	-892.217
1.32225	-891.738
1.32232	-891.259
1.3224	-890.78
1.32247	-890.301
1.32254	-889.822
1.32261	-889.343
1.32268	-888.864
1.32275	-888.385
1.32282	-887.906
1.32289	-887.427
1.32297	-886.948
1.32304	-886.469
1.32311	-885.99
1.32318	-885.512
1.32325	-885.033
1.32332	-884.554
1.32339	-884.075
1.32346	-883.596
1.32353	-883.117
1.32361	-882.638
1.32368	-882.159
1.32375	-881.68
1.32382	-881.201
1.32389	-880.722
1.32396	-880.243
1.32403	-879.764
1.3241	-879.285
1.32418	-878.806
1.32425	-878.327
1.32432	-877.848
1.32439	-877.369
1.32446	-876.891
1.32453	-876.412
1.3246	-875.933
1.32468	-875.454
1.32475	-874.975
1.32482	-874.496
1.32489	-874.017
1.32496	-873.538
1.32503	-873.059
1.3251	-872.58
1.32518	-872.101
1.32525	-871.622
1.32532	-871.143
1.32539	-870.664
1.32546	-870.185
1.32553	-869.706
1.3256	-869.227
1.32568	-868.748
1.32575	-868.27
1.32582	-867.791
1.32589	-867.312
1.32596	-866.833
1.32603	-866.354
1.3261	-865.875
1.32618	-865.396
1.32625	-864.917
1.32632	-864.438
1.32639	-863.959
1.32646	-863.48
1.32653	-863.001
1.32661	-862.522
1.32668	-862.043
1.32675	-861.564
1.32682	-861.085
1.32689	-860.606
1.32696	-860.127
1.32704	-859.648
1.32711	-859.17
1.32718	-858.691
1.32725	-858.212
1.32732	-857.733
1.32739	-857.254
1.32747	-856.775
1.32754	-856.296
1.32761	-855.817
1.32768	-855.338
1.32775	-854.859
1.32782	-854.38
1.3279	-853.901
1.32797	-853.422
1.32804	-852.943
1.32811	-852.464
1.32818	-851.985
1.32825	-851.506
1.32833	-851.028
1.3284	-850.549
1.32847	-850.07
1.32854	-849.591
1.32861	-849.112
1.32869	-848.633
1.32876	-848.154
1.32883	-847.675
1.3289	-847.196
1.32897	-846.717
1.32904	-846.238
1.32912	-845.759
1.32919	-845.28
1.32926	-844.801
1.32933	-844.322
1.3294	-843.843
1.32948	-843.364
1.32955	-842.885
1.32962	-842.406
1.32969	-841.928
1.32976	-841.449
1.32984	-840.97
1.32991	-840.491
1.32998	-840.012
1.33005	-839.533
1.33012	-839.054
1.3302	-838.575
1.33027	-838.096
1.33034	-837.617
1.33041	-837.138
1.33048	-836.659
1.33056	-836.18
1.33063	-835.701
1.3307	-835.222
1.33077	-834.743
1.33084	-834.264
1.33092	-833.786
1.33099	-833.307
1.33106	-832.828
1.33113	-832.349
1.33121	-831.87
1.33128	-831.391
1.33135	-830.912
1.33142	-830.433
1.33149	-829.954
1.33157	-829.475
1.33164	-828.996
1.33171	-828.517
1.33178	-828.038
1.33185	-827.559
1.33193	-827.08
1.332	-826.601
1.33207	-826.122
1.33214	-825.643
1.33222	-825.165
1.33229	-824.686
1.33236	-824.207
1.33243	-823.728
1.33251	-823.249
1.33258	-822.77
1.33265	-822.291
1.33272	-821.812
1.33279	-821.333
1.33287	-820.854
1.33294	-820.375
1.33301	-819.896
1.33308	-819.417
1.33316	-818.938
1.33323	-818.459
1.3333	-817.98
1.33337	-817.501
1.33345	-817.022
1.33352	-816.544
1.33359	-816.065
1.33366	-815.586
1.33374	-815.107
1.33381	-814.628
1.33388	-814.149
1.33395	-813.67
1.33403	-813.191
1.3341	-812.712
1.33417	-812.233
1.33424	-811.754
1.33432	-811.275
1.33439	-810.796
1.33446	-810.317
1.33453	-809.838
1.33461	-809.359
1.33468	-808.88
1.33475	-808.401
1.33482	-807.923
1.3349	-807.444
1.33497	-806.965
1.33504	-806.486
1.33511	-806.007
1.33519	-805.528
1.33526	-805.049
1.33533	-804.57
1.3354	-804.091
1.33548	-803.612
1.33555	-803.133
1.33562	-802.654
1.3357	-802.175
1.33577	-801.696
1.33584	-801.217
1.33591	-800.738
1.33599	-800.259
1.33606	-799.78
1.33613	-799.302
1.3362	-798.823
1.33628	-798.344
1.33635	-797.865
1.33642	-797.386
1.3365	-796.907
1.33657	-796.428
1.33664	-795.949
1.33671	-795.47
1.33679	-794.991
1.33686	-794.512
1.33693	-794.033
1.33701	-793.554
1.33708	-793.075
1.33715	-792.596
1.33722	-792.117
1.3373	-791.638
1.33737	-791.159
1.33744	-790.681
1.33752	-790.202
1.33759	-789.723
1.33765	-786.171
1.33772	-781.949
1.33779	-778.683
1.33786	-780.322
1.33794	-784.016
1.33801	-785.566
1.33808	-793.97
1.33815	-799.93
1.33823	-815.794
1.3383	-831.264
1.33837	-841.249
1.33844	-856.796
1.33852	-868.342
1.33859	-879.889
1.33866	-887.436
1.33873	-900.983
1.33881	-903.529
1.33888	-920.076
1.33895	-919.623
1.33902	-937.169
1.3391	-944.716
1.33917	-942.263
1.33924	-955.809
1.33931	-980.356
1.33939	-981.903
1.33946	-981.449
1.33953	-1004
1.33961	-1010.54
1.33968	-1010.09
1.33975	-1017.64
1.33982	-1025.18
1.3399	-1035.73
1.33997	-1039.28
1.34004	-1048.82
1.34011	-1065.37
1.34019	-1068.92
1.34026	-1080.46
1.34033	-1089.01
1.34041	-1088.56
1.34048	-1100.1
1.34055	-1106.65
1.34062	-1109.2
1.3407	-1121.74
1.34077	-1117.29
1.34084	-1128.84
1.34091	-1138.38
1.34099	-1143.93
1.34106	-1151.48
1.34113	-1150.02
1.34121	-1163.57
1.34128	-1177.12
1.34135	-1178.66
1.34142	-1174.21
1.3415	-1185.76
1.34157	-1198.3
1.34164	-1193.85
1.34172	-1205.4
1.34179	-1211.94
1.34186	-1207.49
1.34194	-1211.04
1.34201	-1227.58
1.34208	-1227.13
1.34215	-1228.68
1.34223	-1229.22
1.3423	-1246.77
1.34237	-1247.32
1.34245	-1255.86
1.34252	-1262.41
1.34259	-1260.96
1.34267	-1264.5
1.34274	-1262.05
1.34281	-1279.6
1.34288	-1271.14
1.34296	-1283.69
1.34303	-1277.24
1.3431	-1296.78
1.34318	-1293.33
1.34325	-1299.88
1.34332	-1306.42
1.3434	-1294.97
1.34347	-1309.52
1.34354	-1324.06
1.34362	-1321.61
1.34369	-1316.16
1.34376	-1322.7
1.34384	-1329.25
1.34391	-1329.8
1.34398	-1329.34
1.34406	-1343.89
1.34413	-1338.44
1.3442	-1338.98
1.34427	-1356.53
1.34435	-1348.08
1.34442	-1343.62
1.34449	-1362.17
1.34457	-1357.72
1.34464	-1365.26
1.34471	-1364.81
1.34479	-1371.36
1.34486	-1359.9
1.34493	-1382.45
1.34501	-1381
1.34508	-1377.54
1.34515	-1385.09
1.34523	-1387.64
1.3453	-1391.18
1.34537	-1382.73
1.34545	-1396.28
1.34552	-1393.82
1.3456	-1395.37
1.34567	-1396.92
1.34574	-1416.47
1.34582	-1405.01
1.34589	-1404.56
1.34596	-1402.11
1.34604	-1412.65
1.34611	-1409.2
1.34618	-1416.75
1.34626	-1419.29
1.34633	-1415.84
1.3464	-1412.39
1.34648	-1421.93
1.34655	-1434.48
1.34662	-1422.03
1.3467	-1413.57
1.34677	-1434.12
1.34684	-1420.67
1.34692	-1430.21
1.34699	-1429.76
1.34706	-1434.31
1.34714	-1435.85
1.34721	-1448.4
1.34729	-1438.95
1.34736	-1436.49
1.34743	-1440.04
1.34751	-1441.59
1.34758	-1447.13
1.34765	-1444.68
1.34773	-1444.23
1.3478	-1447.77
1.34788	-1449.32
1.34795	-1452.87
1.34802	-1455.41
1.3481	-1454.96
1.34817	-1447.51
1.34824	-1450.05
1.34832	-1446.6
1.34839	-1464.15
1.34846	-1453.69
1.34854	-1453.24
1.34861	-1456.79
1.34869	-1451.33
1.34876	-1451.88
1.34883	-1451.43
1.34891	-1457.97
1.34898	-1456.52
1.34906	-1468.07
1.34913	-1465.61
1.3492	-1472.16
1.34928	-1470.71
1.34935	-1464.25
1.34942	-1465.8
1.3495	-1473.35
1.34957	-1466.89
1.34965	-1466.44
1.34972	-1472.99
1.34979	-1470.53
1.34987	-1471.08
1.34994	-1474.63
1.35002	-1487.17
1.35009	-1475.72
1.35016	-1481.27
1.35024	-1474.81
1.35031	-1469.36
1.35039	-1472.91
1.35046	-1476.45
1.35053	-1489
1.35061	-1467.55
1.35068	-1475.09
1.35076	-1462.64
1.35083	-1461.19
1.3509	-1472.73
1.35098	-1469.28
1.35105	-1471.83
1.35113	-1475.37
1.3512	-1480.92
1.35127	-1466.47
1.35135	-1480.01
1.35142	-1469.56
1.3515	-1477.11
1.35157	-1482.65
1.35165	-1475.2
1.35172	-1478.75
1.35179	-1473.29
1.35187	-1478.84
1.35194	-1478.39
1.35202	-1482.93
1.35209	-1473.48
1.35216	-1482.03
1.35224	-1475.57
1.35231	-1483.12
1.35239	-1484.67
1.35246	-1481.21
1.35254	-1475.76
1.35261	-1479.31
1.35268	-1481.85
1.35276	-1474.4
1.35283	-1479.95
1.35291	-1478.49
1.35298	-1455.04
1.35306	-1479.59
1.35313	-1484.13
1.35321	-1484.68
1.35328	-1471.23
1.35335	-1483.77
1.35343	-1480.32
1.3535	-1479.87
1.35358	-1472.41
1.35365	-1478.96
1.35373	-1465.51
1.3538	-1479.05
1.35387	-1475.6
1.35395	-1475.15
1.35402	-1476.69
1.3541	-1472.24
1.35417	-1465.79
1.35425	-1468.33
1.35432	-1462.88
1.3544	-1478.43
1.35447	-1478.97
1.35454	-1462.52
1.35462	-1461.07
1.35469	-1462.62
1.35477	-1469.16
1.35484	-1452.71
1.35492	-1458.26
1.35499	-1459.8
1.35507	-1472.35
1.35514	-1457.9
1.35522	-1461.44
1.35529	-1460.99
1.35537	-1459.54
1.35544	-1471.08
1.35551	-1449.63
1.35559	-1454.18
1.35566	-1460.72
1.35574	-1465.27
1.35581	-1462.82
1.35589	-1445.36
1.35596	-1448.91
1.35604	-1448.46
1.35611	-1455
1.35619	-1456.55
1.35626	-1452.1
1.35634	-1435.64
1.35641	-1449.19
1.35649	-1446.74
1.35656	-1444.28
1.35664	-1447.83
1.35671	-1441.38
1.35678	-1444.92
1.35686	-1442.47
1.35693	-1442.02
1.35701	-1440.56
1.35708	-1439.11
1.35716	-1437.66
1.35723	-1436.2
1.35731	-1432.75
1.35738	-1433.3
1.35746	-1431.84
1.35753	-1430.39
1.35761	-1428.94
1.35768	-1427.48
1.35776	-1426.03
1.35783	-1424.58
1.35791	-1423.12
1.35798	-1421.67
1.35806	-1420.22
1.35813	-1418.76
1.35821	-1417.31
1.35828	-1415.86
1.35836	-1414.4
1.35843	-1412.95
1.35851	-1411.5
1.35858	-1410.04
1.35866	-1408.59
1.35873	-1407.14
1.35881	-1405.68
1.35888	-1404.23
1.35896	-1402.78
1.35903	-1401.32
1.35911	-1399.87
1.35918	-1398.42
1.35926	-1396.96
1.35933	-1395.51
1.35941	-1394.06
1.35948	-1392.6
1.35956	-1391.15
1.35963	-1389.7
1.35971	-1388.24
1.35978	-1383.79
1.35986	-1385.34
1.35993	-1383.88
1.36001	-1382.43
1.36008	-1380.98
1.36016	-1379.52
1.36024	-1378.07
1.36031	-1376.62
1.36039	-1375.16
1.36046	-1373.71
1.36054	-1372.26
1.36061	-1370.8
1.36069	-1369.35
1.36076	-1367.9
1.36084	-1366.44
1.36091	-1364.99
1.36099	-1363.54
1.36106	-1362.08
1.36114	-1360.63
1.36121	-1359.18
1.36129	-1357.72
1.36136	-1356.27
1.36144	-1354.82
1.36152	-1353.36
1.36159	-1351.91
1.36167	-1350.46
1.36174	-1349
1.36182	-1347.55
1.36189	-1346.1
1.36197	-1344.64
1.36204	-1343.19
1.36212	-1341.74
1.36219	-1340.28
1.36227	-1338.83
1.36235	-1337.38
1.36242	-1335.92
1.3625	-1334.47
1.36257	-1333.02
1.36265	-1331.56
1.36272	-1330.11
1.3628	-1328.66
1.36287	-1327.2
1.36295	-1325.75
1.36303	-1324.3
1.3631	-1322.84
1.36318	-1321.39
1.36325	-1319.94
1.36333	-1318.48
1.3634	-1317.03
1.36348	-1315.58
1.36355	-1314.13
1.36363	-1312.67
1.36371	-1311.22
1.36378	-1309.77
1.36386	-1308.31
1.36393	-1306.86
1.36401	-1305.41
1.36408	-1303.95
1.36416	-1302.5
1.36424	-1301.05
1.36431	-1299.59
1.36439	-1298.14
1.36446	-1296.69
1.36454	-1295.23
1.36461	-1293.78
1.36469	-1292.33
1.36477	-1290.87
1.36484	-1289.42
1.36492	-1287.97
1.36499	-1286.51
1.36507	-1285.06
1.36514	-1283.61
1.36522	-1282.15
1.3653	-1280.7
1.36537	-1279.25
1.36545	-1277.79
1.36552	-1276.34
1.3656	-1274.89
1.36568	-1273.43
1.36575	-1271.98
1.36583	-1270.53
1.3659	-1269.07
1.36598	-1267.62
1.36606	-1266.17
1.36613	-1264.71
1.36621	-1263.26
1.36628	-1261.81
1.36636	-1260.35
1.36644	-1258.9
1.36651	-1257.45
1.36659	-1255.99
1.36666	-1254.54
1.36674	-1253.09
1.36682	-1251.63
1.36689	-1250.18
1.36697	-1248.73
1.36704	-1247.27
1.36712	-1245.82
1.3672	-1244.37
1.36727	-1242.91
1.36735	-1241.46
1.36742	-1240.01
1.3675	-1238.55
1.36758	-1237.1
1.36765	-1235.65
1.36773	-1234.19
1.36781	-1232.74
1.36788	-1231.29
1.36796	-1229.83
1.36803	-1228.38
1.36811	-1226.93
1.36819	-1225.47
1.36826	-1224.02
1.36834	-1222.57
1.36841	-1221.11
1.36849	-1219.66
1.36857	-1218.21
1.36864	-1216.75
1.36872	-1215.3
1.3688	-1213.85
1.36887	-1212.39
1.36895	-1210.94
1.36902	-1209.49
1.3691	-1208.03
1.36918	-1206.58
1.36925	-1205.13
1.36933	-1203.67
1.36941	-1197.22
1.36948	-1200.77
1.36956	-1185.31
1.36964	-1196.86
1.36971	-1196.41
1.36979	-1194.95
1.36987	-1187.5
1.36994	-1191.05
1.37002	-1178.59
1.37009	-1189.14
1.37017	-1175.69
1.37025	-1186.23
1.37032	-1184.78
1.3704	-1161.33
1.37048	-1181.87
1.37055	-1168.42
1.37063	-1165.97
1.37071	-1162.51
1.37078	-1176.06
1.37086	-1147.61
1.37094	-1173.15
1.37101	-1144.7
1.37109	-1168.25
1.37117	-1149.79
1.37124	-1167.34
1.37132	-1142.89
1.3714	-1139.43
1.37147	-1139.98
1.37155	-1157.53
1.37163	-1138.07
1.3717	-1143.62
1.37178	-1152.17
1.37186	-1121.71
1.37193	-1144.26
1.37201	-1129.81
1.37209	-1112.35
1.37216	-1112.9
1.37224	-1135.45
1.37232	-1107.99
1.37239	-1129.54
1.37247	-1109.09
1.37255	-1127.64
1.37262	-1096.18
1.3727	-1133.73
1.37278	-1122.28
1.37285	-1123.82
1.37293	-1098.37
1.37301	-1103.92
1.37308	-1105.46
1.37316	-1103.01
1.37324	-1105.56
1.37331	-1087.1
1.37339	-1111.65
1.37347	-1050.2
1.37354	-1096.74
1.37362	-1051.29
1.3737	-1082.84
1.37378	-1071.38
1.37385	-1101.93
1.37393	-1076.48
1.37401	-1064.02
1.37408	-1078.57
1.37416	-1048.12
1.37424	-1066.66
1.37431	-1029.21
1.37439	-1078.76
1.37447	-1039.3
1.37454	-1074.85
1.37462	-1016.4
1.3747	-1054.94
1.37478	-1022.49
1.37485	-1044.04
1.37493	-1022.58
1.37501	-1029.13
1.37508	-1001.68
1.37516	-1043.22
1.37524	-992.769
1.37532	-1016.32
1.37539	-1042.86
1.37547	-1010.41
1.37555	-1032.96
1.37562	-973.503
1.3757	-1008.05
1.37578	-982.596
1.37586	-1040.14
1.37593	-1006.69
1.37601	-1000.24
1.37609	-975.783
1.37616	-992.33
1.37624	-973.876
1.37632	-1003.42
1.3764	-963.97
1.37647	-992.516
1.37655	-964.063
1.37663	-974.61
1.3767	-977.156
1.37678	-973.703
1.37686	-950.25
1.37694	-915.797
1.37701	-998.343
1.37709	-953.89
1.37717	-959.437
1.37725	-953.983
1.37732	-963.53
1.3774	-928.077
1.37748	-933.623
1.37756	-906.17
1.37763	-926.717
1.37771	-885.263
1.37779	-943.81
1.37787	-903.357
1.37794	-910.904
1.37802	-899.45
1.3781	-884.997
1.37817	-910.544
1.37825	-880.09
1.37833	-895.072
1.37841	-860.054
1.37848	-883.036
1.37856	-832.017
1.37864	-886.999
1.37872	-846.981
1.37879	-876.963
1.37887	-846.944
1.37895	-876.926
1.37903	-844.908
1.37911	-893.89
1.37918	-864.871
1.37926	-868.853
1.37934	-834.835
1.37942	-866.817
1.37949	-837.798
1.37957	-857.78
1.37965	-854.762
1.37973	-827.744
1.3798	-881.725
1.37988	-840.707
1.37996	-863.689
1.38004	-796.671
1.38011	-843.652
1.38019	-820.634
1.38027	-851.616
1.38035	-786.598
1.38043	-830.579
1.3805	-789.561
1.38058	-843.543
1.38066	-797.525
1.38074	-784.506
1.38081	-799.488
1.38089	-836.47
1.38097	-777.452
1.38105	-768.433
1.38113	-802.415
1.3812	-769.397
1.38128	-812.379
1.38136	-747.36
1.38144	-785.342
1.38151	-710.324
1.38159	-773.306
1.38167	-730.287
1.38175	-766.269
1.38183	-701.251
1.3819	-759.233
1.38198	-704.214
1.38206	-755.196
1.38214	-684.178
1.38222	-728.16
1.38229	-700.141
1.38237	-753.123
1.38245	-683.105
1.38253	-700.087
1.38261	-665.068
1.38268	-688.05
1.38276	-692.032
1.38284	-679.014
1.38292	-712.995
1.383	-651.977
1.38307	-683.959
1.38315	-653.941
1.38323	-687.922
1.38331	-601.904
1.38339	-668.886
1.38346	-615.868
1.38354	-632.849
1.38362	-605.831
1.3837	-676.813
1.38378	-606.795
1.38386	-635.776
1.38393	-616.758
1.38401	-620.74
1.38409	-637.722
1.38417	-584.703
1.38425	-613.685
1.38432	-569.667
1.3844	-594.649
1.38448	-559.63
1.38456	-575.612
1.38464	-545.594
1.38472	-554.576
1.38479	-521.557
1.38487	-560.539
1.38495	-518.521
1.38503	-522.503
1.38511	-490.484
1.38519	-531.466
1.38526	-455.448
1.38534	-510.43
1.38542	-470.411
1.3855	-474.393
1.38558	-460.375
1.38566	-442.357
1.38573	-431.338
1.38581	-456.32
1.38589	-440.302
1.38597	-450.284
1.38605	-445.265
1.38613	-391.247
1.38621	-364.229
1.38628	-339.211
1.38636	-358.192
1.38644	-337.174
1.38652	-355.156
1.3866	-307.138
1.38668	-371.119
1.38675	-297.101
1.38683	-335.083
1.38691	-307.065
1.38699	-316.046
1.38707	-247.028
1.38715	-294.01
1.38723	-257.992
1.38731	-226.973
1.38738	-218.955
1.38746	-255.937
1.38754	-187.919
1.38762	-291.9
1.3877	-177.882
1.38778	-207.864
1.38786	-197.846
1.38793	-158.827
1.38801	-154.809
1.38809	-174.791
1.38817	-173.773
1.38825	-132.754
1.38833	-169.736
1.38841	-66.7178
1.38849	-103.7
1.38856	-86.6813
1.38864	-140.663
1.38872	-131.645
1.3888	-71.6266
1.38888	-65.6083
1.38896	-88.5901
1.38904	10.4282
1.38912	-13.5536
1.38919	-17.5353
1.38927	-4.51709
1.38935	23.5012
1.38943	2.51941
1.38951	70.5377
1.38959	11.5559
1.38967	25.5742
1.38975	69.5924
1.38983	125.611
1.3899	87.6289
1.38998	183.647
1.39006	122.665
1.39014	126.684
1.39022	178.702
1.3903	176.72
1.39038	173.738
1.39046	270.757
1.39054	285.775
1.39062	245.793
1.39069	326.811
1.39077	330.83
1.39085	226.848
1.39093	396.866
1.39101	328.884
1.39109	373.903
1.39117	332.921
1.39125	401.939
1.39133	378.957
1.39141	475.976
1.39149	358.994
1.39156	428.012
1.39164	474.03
1.39172	488.049
1.3918	511.067
1.39188	507.085
1.39196	517.103
1.39204	494.122
1.39212	510.14
1.3922	464.158
1.39228	607.176
1.39236	524.195
1.39244	677.213
1.39251	599.231
1.39259	651.249
1.39267	551.268
1.39275	727.286
1.39283	643.304
1.39291	773.322
1.39299	690.341
1.39307	761.359
1.39315	711.377
1.39323	846.395
1.39331	694.414
1.39339	852.432
1.39347	802.45
1.39355	888.468
1.39363	826.487
1.3937	1039.5
1.39378	907.523
1.39386	1052.54
1.39394	963.56
1.39402	1025.58
1.3941	992.596
1.39418	1113.61
1.39426	1063.63
1.39434	1166.65
1.39442	1140.67
1.3945	1133.69
1.39458	1207.71
1.39466	1132.72
1.39474	1214.74
1.39482	1215.76
1.3949	1331.78
1.39498	1184.8
1.39506	1483.82
1.39514	1270.83
1.39522	1478.85
1.3953	1332.87
1.39537	1536.89
1.39545	1367.91
1.39553	1610.92
1.39561	1375.94
1.39569	1573.96
1.39577	1409.98
1.39585	1665
1.39593	1469.02
1.39601	1788.03
1.39609	1469.05
1.39617	1702.07
1.39625	1565.09
1.39633	1661.11
1.39641	1601.13
1.39649	1871.14
1.39657	1602.16
1.39665	1860.18
1.39673	1627.2
1.39681	1858.22
1.39689	1766.23
1.39697	1859.25
1.39705	1853.27
1.39713	1883.29
1.39721	1829.31
1.39729	1876.33
1.39737	2038.34
1.39745	1884.36
1.39753	2048.38
1.39761	2023.4
1.39769	2108.42
1.39777	1900.44
1.39785	2240.45
1.39793	2055.47
1.39801	2263.49
1.39809	2093.51
1.39817	2366.53
1.39825	2114.55
1.39833	2609.56
1.39841	2242.58
1.39849	2580.6
1.39857	2262.62
1.39865	2590.64
1.39873	2354.65
1.39881	2901.67
1.39889	2394.69
1.39897	2837.71
1.39905	2502.73
1.39913	2953.75
1.39921	2560.76
1.39929	3038.78
1.39937	2610.8
1.39945	2968.82
1.39953	2768.84
1.39961	3162.86
1.39969	2873.87
1.39977	3313.89
1.39985	2859.91
1.39993	3175.93
1.40001	2941.95
1.40009	3257.96
1.40017	3114.98
1.40025	3462
1.40033	3110.02
1.40041	3175.04
1.40049	3261.06
1.40057	3424.07
1.40065	3380.09
1.40073	3563.11
1.40081	3371.13
1.40089	3418.15
1.40097	3507.17
1.40105	3496.18
1.40113	3670.2
1.40121	3560.22
1.40129	3670.24
1.40137	3496.26
1.40146	3882.28
1.40154	3644.29
1.40162	4082.31
1.4017	3616.33
1.40178	3981.35
1.40186	3620.37
1.40194	4234.38
1.40202	3720.4
1.4021	4361.42
1.40218	3832.44
1.40226	4287.46
1.40234	3840.48
1.40242	4552.49
1.4025	3977.51
1.40258	4695.53
1.40266	4076.55
1.40274	4638.57
1.40282	4041.59
1.4029	4936.6
1.40298	4224.62
1.40307	4970.64
1.40315	4283.66
1.40323	4936.68
1.40331	4412.69
1.40339	5377.71
1.40347	4576.73
1.40355	5279.75
1.40363	4662.77
1.40371	5322.79
1.40379	4857.8
1.40387	5535.82
1.40395	4870.84
1.40403	5601.86
1.40411	4994.88
1.40419	5714.9
1.40428	5376.91
1.40436	6003.93
1.40444	5327.95
1.40452	5961.97
1.4046	5439.99
1.40468	5996.01
1.40476	5744.02
1.40484	6302.04
1.40492	5831.06
1.405	6065.08
1.40508	6088.1
1.40516	6320.11
1.40525	6239.13
1.40533	6599.15
1.40541	6321.17
1.40549	6398.19
1.40557	6532.21
1.40565	6702.22
1.40573	6786.24
1.40581	6785.26
1.40589	6744.28
1.40597	6726.3
1.40605	7028.32
1.40614	6882.33
1.40622	7132.35
1.4063	7280.37
1.40638	7152.39
1.40646	7013.41
1.40654	7529.42
1.40662	7343.44
1.4067	7701.46
1.40678	7487.48
1.40686	7599.5
1.40695	7307.52
1.40703	8057.53
1.40711	7543.55
1.40719	7974.57
1.40727	7615.59
1.40735	8156.61
1.40743	7782.63
1.40751	8630.64
1.40759	8032.66
1.40768	8706.68
1.40776	8137.7
1.40784	8879.72
1.40792	8129.74
1.408	9267.75
1.40808	8465.77
1.40816	9253.79
1.40824	8749.81
1.40833	9389.83
1.40841	8757.84
1.40849	9997.86
1.40857	9189.88
1.40865	9745.9
1.40873	9228.92
1.40881	10291.9
1.40889	9412.95
1.40898	10695
1.40906	9802.99
1.40914	10501
1.40922	9968.03
1.4093	11207
1.40938	10034.1
1.40946	11291.1
1.40955	10412.1
1.40963	11327.1
1.40971	10575.1
1.40979	11964.2
1.40987	10966.2
1.40995	12243.2
1.41003	11149.2
1.41012	12080.2
1.4102	11562.2
1.41028	12713.3
1.41036	11596.3
1.41044	12999.3
1.41052	12173.3
1.41061	12888.3
1.41069	12405.4
1.41077	13538.4
1.41085	12596.4
1.41093	13540.4
1.41101	12875.4
1.41109	13896.4
1.41118	13102.5
1.41126	14304.5
1.41134	13319.5
1.41142	14310.5
1.4115	13714.5
1.41158	14674.6
1.41167	13868.6
1.41175	15310.6
1.41183	14115.6
1.41191	15304.6
1.41199	14546.6
1.41207	15586.7
1.41216	14831.7
1.41224	16256.7
1.41232	15496.7
1.4124	16162.7
1.41248	15614.8
1.41257	16977.8
1.41265	16180.8
1.41273	17309.8
1.41281	16536.8
1.41289	17520.8
1.41297	16813.9
1.41306	18387.9
1.41314	17356.9
1.41322	18639.9
1.4133	18042.9
1.41338	18834
1.41347	18320
1.41355	19764
1.41363	19066
1.41371	20198
1.41379	19522
1.41388	20628.1
1.41396	20123.1
1.41404	21707.1
1.41412	20710.1
1.41418	21591.4
1.41426	21535.4
1.41434	22368.5
1.41442	21973.5
1.4145	22776.1
1.41459	22657.4
1.41467	23038.5
1.41475	22877.3
1.41483	23949.8
1.41491	23121.1
1.41499	24328.5
1.41508	24302.5
1.41516	24481.2
1.41524	24205.6
1.41532	25896
1.4154	25201.3
1.41548	26214.7
1.41556	26300.1
1.41565	26832.4
1.41573	26293.8
1.41581	28035.2
1.41589	27505.5
1.41597	27774.9
1.41606	28139.3
1.41614	28812.6
1.41622	28443
1.4163	29615.4
1.41638	29477.7
1.41646	29886.1
1.41655	30086.5
1.41663	30804.8
1.41671	30528.2
1.41679	31660.6
1.41687	31861.9
1.41695	31641.3
1.41704	32235.7
1.41712	32614
1.4172	32439.4
1.41728	33283.8
1.41736	33917.1
1.41745	33466.5
1.41753	34250.9
1.41761	34881.2
1.41769	35117.6
1.41777	34647
1.41786	36425.3
1.41794	35450.7
1.41802	36430.1
1.4181	36718.4
1.41818	37548.8
1.41827	36797.2
1.41835	38855.5
1.41843	37859.9
1.41851	38941.3
1.41859	39047.6
1.41868	39871
1.41876	38770.4
1.41884	41081.7
1.41892	40145.1
1.419	41187.5
1.41909	40705.8
1.41917	43226.2
1.41925	40683.6
1.41933	43487.9
1.41941	42472.3
1.4195	43836.7
1.41958	42611
1.41966	45383.4
1.41974	43067.8
1.41983	45308.1
1.41991	43844.5
1.41999	45653.9
1.42007	44034.2
1.42015	47345.6
1.42024	44608
1.42032	46882.3
1.4204	45477.7
1.42048	48004.1
1.42057	45527.4
1.42065	48831.8
1.42073	46443.2
1.42081	48307.5
1.4209	46448.9
1.42098	50210.3
1.42106	46221.6
1.42114	50211
1.42122	47655.4
1.42131	49926.7
1.42139	46985.1
1.42147	51449.5
1.42155	47666.8
1.42164	51193.2
1.42172	48421.6
1.4218	51545.9
1.42188	48369.3
1.42197	52527.7
1.42205	49069
1.42213	51674.4
1.42221	49478.8
1.4223	52457.1
1.42238	49095.5
1.42246	52611.9
1.42254	50387.2
1.42263	52467.6
1.42271	50029
1.42279	52733.3
1.42287	50048.7
1.42296	52761.1
1.42304	51227.4
1.42312	52489.8
1.42321	50174.2
1.42329	52811.5
1.42337	51226.9
1.42345	52527.3
1.42354	51375.6
1.42362	52422
1.4237	50693.4
1.42378	52707.7
1.42387	51771.1
1.42395	51896.5
1.42403	51414.8
1.42411	52158.2
1.4242	50911.6
1.42428	52082.9
1.42436	52092.3
1.42445	50781.7
1.42453	51175
1.42461	51102.4
1.42469	51547.8
1.42478	50520.1
1.42486	52279.5
1.42494	49934.9
1.42503	50904.2
1.42511	50548.6
1.42519	52473
1.42527	49557.3
1.42536	52458.7
1.42544	49197.1
1.42552	51658.4
1.42561	49713.8
1.42569	52651.2
1.42577	48933.5
1.42586	52519.9
1.42594	48695.3
1.42602	52458.6
1.4261	48568
1.42619	52733.4
1.42627	47673.7
1.42635	52295.1
1.42644	47895.5
1.42652	52634.8
1.4266	47548.2
1.42669	52792.6
1.42677	47010.9
1.42685	52037.3
1.42694	47135.7
1.42702	52710
1.4271	46793.4
1.42718	52486.8
1.42727	46280.1
1.42735	51883.5
1.42743	45729.9
1.42752	52493.2
1.4276	45909.6
1.42768	51069
1.42777	45618.3
1.42785	51055.7
1.42793	44763.1
1.42802	51494.4
1.4281	45129.8
1.42818	49363.2
1.42827	44205.5
1.42835	50443.9
1.42843	44787.3
1.42852	49590.6
1.4286	44971
1.42868	48531.4
1.42877	44700.7
1.42885	49580.1
1.42893	45878.5
1.42902	47910.8
1.4291	45290.2
1.42918	47532.6
1.42927	45381.9
1.42935	48025.3
1.42943	46548.7
1.42952	46409
1.4296	45877.4
1.42968	46751.8
1.42977	46828.1
1.42985	45602.5
1.42994	47444.9
1.43002	44681.2
1.4301	46168.6
1.43019	45090
1.43027	48036.3
1.43035	43421.7
1.43044	47501.1
1.43052	43415.4
1.4306	46785.8
1.43069	42804.2
1.43077	48209.5
1.43085	42006.9
1.43094	46307.3
1.43102	41771.6
1.43111	47178
1.43119	41253.4
1.43127	47577.7
1.43136	41041.1
1.43144	45896.5
1.43152	40148.8
1.43161	47095.2
1.43169	40422.6
1.43178	46565.9
1.43186	40070.3
1.43194	45178.7
1.43203	39755
1.43211	46432.4
1.43219	40334.8
1.43228	44181.1
1.43236	40473.5
1.43245	44640.9
1.43253	40258.2
1.43261	44346.6
1.4327	41436
1.43278	42771.3
1.43287	40491.7
1.43295	43551.1
1.43303	41679.4
1.43312	42282.8
1.4332	41664.2
1.43328	41686.5
1.43337	41506.9
1.43345	41558.3
1.43354	42892.6
1.43362	40266
1.4337	42194.4
1.43379	40206.7
1.43387	42494.1
1.43396	39348.5
1.43404	43559.8
1.43412	38572.2
1.43421	41967.6
1.43429	38367.9
1.43438	43526.3
1.43446	38061.7
1.43455	42596
1.43463	37872.4
1.43471	41959.8
1.4348	37288.1
1.43488	42886.5
1.43497	37562.9
1.43505	41517.2
1.43513	37137.6
1.43522	41490.9
1.4353	36590.3
1.43539	41795.7
1.43547	37245.1
1.43556	39847.4
1.43564	36963.8
1.43572	40157.2
1.43581	37626.5
1.43589	39076.9
1.43598	37616.3
1.43606	38149.6
1.43615	37203
1.43623	38592.3
1.43631	38560.7
1.4364	37291.1
1.43648	37875.4
1.43657	37353.8
1.43665	38444.2
1.43674	36548.6
1.43682	39201.9
1.43691	36000.3
1.43699	38489.7
1.43707	36363
1.43716	39362.4
1.43724	35585.7
1.43733	38840.1
1.43741	35228.5
1.4375	38523.8
1.43758	35414.2
1.43767	39429.6
1.43775	35383.9
1.43783	37930.3
1.43792	35131.7
1.438	38172.1
1.43809	34914.4
1.43817	37647.8
1.43826	35258.1
1.43834	36557.5
1.43843	34581.9
1.43851	37118.2
1.4386	35368.6
1.43868	35811
1.43877	35143.3
1.43885	35444.7
1.43893	35088.1
1.43902	35052.4
1.4391	35854.8
1.43919	34158.2
1.43927	35053.5
1.43936	34195.9
1.43944	35737.3
1.43953	33416.6
1.43961	35920
1.4397	33380.4
1.43978	34996.7
1.43987	33004.1
1.43995	35734.5
1.44004	32553.8
1.44012	34803.2
1.44021	33159.6
1.44029	35128.9
1.44038	32587.3
1.44046	35090.7
1.44055	33341
1.44063	34277.4
1.44072	32956.8
1.4408	34403.1
1.44089	33405.5
1.44097	33583.9
1.44106	33562.2
1.44114	33582.6
1.44123	33161
1.44131	33588.3
1.4414	33747.7
1.44148	32641.1
1.44157	32869.4
1.44165	32328.8
1.44174	33399.2
1.44182	32017.5
1.44191	33401.9
1.44199	31957.3
1.44208	32921.6
1.44216	31704
1.44225	33386.4
1.44233	31489.7
1.44242	32642.1
1.4425	31716.5
1.44259	32310.8
1.44267	31188.2
1.44276	32342.6
1.44284	31627.9
1.44293	31585.3
1.44301	31011.7
1.4431	31769
1.44318	31365.4
1.44327	30614.8
1.44335	31491.1
1.44344	30804.5
1.44352	31134.9
1.44361	30411.2
1.4437	31684.6
1.44378	30439
1.44387	30845.3
1.44395	30815.7
1.44404	31338.1
1.44412	30138.4
1.44421	31023.8
1.44429	30367.2
1.44438	30503.5
1.44446	30105.9
1.44455	30734.3
1.44463	30379.6
1.44472	29984
1.44481	30391.4
1.44489	30087.7
1.44498	30105.1
1.44506	29896.5
1.44515	30582.8
1.44523	29458.2
1.44532	29680.6
1.4454	29899.9
1.44549	30398.3
1.44558	29070.7
1.44566	29664
1.44575	29513.4
1.44583	29373.8
1.44592	28945.1
1.446	29502.5
1.44609	29353.9
1.44617	28710.2
1.44626	29079.6
1.44635	29056
1.44643	28709.3
1.44652	28186.7
1.4466	29343.1
1.44669	28317.4
1.44677	28527.8
1.44686	27946.2
1.44695	28910.5
1.44703	27756.9
1.44712	28580.3
1.4472	28051.6
1.44729	28497
1.44737	27787.4
1.44746	28379.7
1.44755	28143.1
1.44763	27780.5
1.44772	27964.8
1.4478	27954.2
1.44789	28058.6
1.44798	27158.9
1.44806	28366.3
1.44815	27256.7
1.44823	27977
1.44832	26916.4
1.4484	28390.8
1.44849	26634.1
1.44858	27494.5
1.44866	27170.9
1.44875	28113.2
1.44883	26625.6
1.44892	27958
1.44901	27307.3
1.44909	27267.7
1.44918	26988.1
1.44926	27049.4
1.44935	27494.8
1.44944	26463.2
1.44952	27258.5
1.44961	26316.9
1.4497	27443.3
1.44978	25897.6
1.44987	27771
1.44995	25547.4
1.45004	27033.7
1.45013	25588.1
1.45021	27675.5
1.4503	25389.8
1.45038	26826.2
1.45047	25505.6
1.45056	26468.9
1.45064	25371.3
1.45073	26444.7
1.45082	26256
1.4509	25690.4
1.45099	25801.8
1.45107	25456.1
1.45116	26343.5
1.45125	24502.9
1.45133	26176.2
1.45142	24575.6
1.45151	26116
1.45159	24309.3
1.45168	26896.7
1.45177	24540.1
1.45185	25994.4
1.45194	24399.8
1.45202	26315.2
1.45211	24550.5
1.4522	25723.9
1.45228	24989.3
1.45237	25235.6
1.45246	24840
1.45254	24736.4
1.45263	25898.7
1.45272	24193.1
1.4528	25606.5
1.45289	23790.8
1.45298	25976.2
1.45306	23563.6
1.45315	26086.9
1.45324	23620.3
1.45332	25527.7
1.45341	23456
1.45349	25629.4
1.45358	23846.8
1.45367	24494.1
1.45375	23882.5
1.45384	24392.9
1.45393	24489.2
1.45401	23975.6
1.4541	24604
1.45419	23247.3
1.45427	24410.7
1.45436	22937.1
1.45445	25166.4
1.45454	22607.8
1.45462	24668.2
1.45471	22267.5
1.4548	24883.9
1.45488	22554.3
1.45497	24422.6
1.45506	22739
1.45514	23822.4
1.45523	22629.7
1.45532	23193.1
1.4554	23523.5
1.45549	22670.8
1.45558	23018.2
1.45566	22321.6
1.45575	24084.9
1.45584	21993.3
1.45592	24011.7
1.45601	21917
1.4561	23928.4
1.45619	21509.8
1.45627	24039.1
1.45636	21710.5
1.45645	23140.9
1.45653	22002.2
1.45662	23294.6
1.45671	22621
1.45679	22602.3
1.45688	22950.7
1.45697	21857.1
1.45706	22733.4
1.45714	21652.8
1.45723	23708.2
1.45732	20966.5
1.4574	23115.9
1.45749	20890.3
1.45758	23505.6
1.45767	21257
1.45775	23038.4
1.45784	21337.7
1.45793	22053.1
1.45801	21410.5
1.4581	22045.8
1.45819	22102.2
1.45828	21064.6
1.45836	21847.9
1.45845	20568.3
1.45854	22898.7
1.45862	20338
1.45871	22344.4
1.4588	20111.8
1.45889	22236.1
1.45897	19983.5
1.45906	22152.9
1.45915	20621.2
1.45924	21161.6
1.45932	20404
1.45941	21224.3
1.4595	21190.7
1.45959	20273.1
1.45967	21433.4
1.45976	19873.8
1.45985	21526.2
1.45994	19440.5
1.46002	22123.9
1.46011	19624.3
1.4602	21238.6
1.46029	19519
1.46037	21616.4
1.46046	19923.7
1.46055	20603.1
1.46064	20186.5
1.46072	20519.8
1.46081	20821.2
1.4609	20234.6
1.46099	21002.9
1.46107	19171.3
1.46116	20952.7
1.46125	19108
1.46134	21423.4
1.46142	19304.8
1.46151	20754.1
1.4616	18996.5
1.46169	20486.9
1.46177	19362.2
1.46186	19899.6
1.46195	19592
1.46204	19429.3
1.46213	19791.7
1.46221	19010.1
1.4623	20511.4
1.46239	18380.8
1.46248	19937.2
1.46256	18320.5
1.46265	20257.9
1.46274	18276.3
1.46283	19768.6
1.46292	18518
1.463	19441.4
1.46309	18663.7
1.46318	19018.1
1.46327	19370.5
1.46335	18426.8
1.46344	19280.2
1.46353	18046.6
1.46362	19875.9
1.46371	17841.3
1.46379	19290.7
1.46388	17935
1.46397	19104.4
1.46406	17844.8
1.46415	18711.1
1.46423	18100.5
1.46432	18198.9
1.46441	18270.2
1.4645	18299.6
1.46459	18990
1.46467	17707.3
1.46476	18707.7
1.46485	17277.1
1.46494	18814.4
1.46503	17202.8
1.46512	18598.2
1.4652	17247.5
1.46529	18033.9
1.46538	17468.3
1.46547	18168.6
1.46556	18017
1.46564	17382.4
1.46573	17768.7
1.46582	17090.1
1.46591	18099.5
1.466	16786.8
1.46609	17907.2
1.46617	16541.6
1.46626	17603.9
1.46635	16628.3
1.46644	17477.7
1.46653	17008
1.46662	17031.4
1.4667	16745.8
1.46679	16891.1
1.46688	17519.5
1.46697	16436.9
1.46706	17309.2
1.46715	16378.6
1.46723	17384
1.46732	16415.3
1.46741	16990.7
1.4675	16489.1
1.46759	16806.4
1.46768	16516.8
1.46776	16655.2
1.46785	17036.5
1.46794	16179.9
1.46803	16753.3
1.46812	16270.6
1.46821	17048
1.4683	16035.4
1.46838	16699.7
1.46847	15925.1
1.46856	16492.5
1.46865	16012.8
1.46874	16294.2
1.46883	16083.6
1.46892	16028.9
1.469	16153.3
1.46909	15844.7
1.46918	16458
1.46927	15790.4
1.46936	15975.8
1.46945	15576.1
1.46954	15955.5
1.46963	15535.9
1.46971	15663.2
1.4698	15749.6
1.46989	15441
1.46998	15495.3
1.47007	15265.7
1.47016	16038.1
1.47025	15361.4
1.47034	15578.8
1.47042	15154.2
1.47051	15555.5
1.4706	14998.9
1.47069	15200.3
1.47078	15110.6
1.47087	15288
1.47096	15152.4
1.47105	15117.7
1.47114	15136.1
1.47122	14949.5
1.47131	15002.8
1.4714	14833.2
1.47149	15143.5
1.47158	14897.9
1.47167	14742.3
1.47176	14844.6
1.47185	14914
1.47194	15035.4
1.47203	14498.7
1.47211	14928.1
1.4722	14792.5
1.47229	14732.8
1.47238	14418.2
1.47247	14720.6
1.47256	14743.9
1.47265	14539.3
1.47274	14433.7
1.47283	14399
1.47292	14608.4
1.47301	14194.8
1.4731	14360.1
1.47318	14277.5
1.47327	14380.9
1.47336	14203.2
1.47345	14197.6
1.47354	14322
1.47363	14052.3
1.47372	14232.7
1.47381	14036.1
1.4739	14338.4
1.47399	13936.8
1.47408	13826.2
1.47417	13920.5
1.47426	13975.9
1.47435	13963.3
1.47443	13692.6
1.47452	14037
1.47461	13842.4
1.4747	13799.7
1.47479	13365.1
1.47488	13772.5
1.47497	13517.8
1.47506	13554.2
1.47515	13517.6
1.47524	13570.9
1.47533	13686.3
1.47542	13267.7
1.47551	13535
1.4756	13327.4
1.47569	13718.8
1.47578	13145.1
1.47587	13523.5
1.47596	13260.9
1.47605	13233.2
1.47614	13295.6
1.47622	13221
1.47631	13584.3
1.4764	12982.7
1.47649	13222.1
1.47658	12867.4
1.47667	13556.8
1.47676	12902.2
1.47685	13219.5
1.47694	13016.9
1.47703	13048.3
1.47712	13197.6
1.47721	12645
1.4773	13294.4
1.47739	12721.7
1.47748	12965.1
1.47757	12569.5
1.47766	13121.8
1.47775	12614.2
1.47784	12652.6
1.47793	12559.9
1.47802	12459.3
1.47811	12902.7
1.4782	12171
1.47829	12668.4
1.47838	12177.8
1.47847	12992.1
1.47856	12072.5
1.47865	12657.9
1.47874	12434.2
1.47883	12345.6
1.47892	12383
1.47901	12247.3
1.4791	12607.7
1.47919	11948.1
1.47928	12548.4
1.47937	11867.8
1.47946	12532.2
1.47955	12104.5
1.47964	12190.9
1.47973	12071.3
1.47982	12020.6
1.47991	12456
1.48	11707.4
1.48009	12498.7
1.48018	11503.1
1.48027	12286.5
1.48036	11646.8
1.48045	12269.2
1.48054	11933.6
1.48063	11882.9
1.48072	11930.3
1.48081	11782.7
1.4809	12135
1.48099	11392.4
1.48108	12082.8
1.48117	11301.1
1.48126	12023.5
1.48135	11508.9
1.48144	11911.2
1.48153	11795.6
1.48162	11519
1.48171	11911.3
1.4818	11129.7
1.48189	12182.1
1.48198	11140.4
1.48207	11611.8
1.48217	11063.2
1.48226	11631.5
1.48235	11554.9
1.48244	11291.3
1.48253	11502.6
1.48262	10951
1.48271	11913.4
1.4828	10887.7
1.48289	11540.1
1.48298	10782.5
1.48307	11547.8
1.48316	10970.2
1.48325	11030.6
1.48334	11127.9
1.48343	10787.3
1.48352	11429.7
1.48361	10649
1.4837	11600.4
1.48379	10596.8
1.48388	11078.1
1.48398	10536.5
1.48407	10904.9
1.48416	11029.2
1.48425	10463.6
1.48434	11163
1.48443	10410.3
1.48452	11288.7
1.48461	10516.1
1.4847	10986.4
1.48479	10333.8
1.48488	10713.2
1.48497	10803.5
1.48506	10461.9
1.48516	10911.3
1.48525	10158.6
1.48534	10871
1.48543	10085.4
1.48552	10994.7
1.48561	10298.1
1.4857	10495.5
1.48579	10398.8
1.48588	10338.2
1.48597	10934.6
1.48606	10108.9
1.48615	10774.3
1.48625	10084.7
1.48634	10767
1.48643	10095.4
1.48652	10249.8
1.48661	10207.1
1.4867	10063.5
1.48679	10572.9
1.48688	9764.24
1.48697	10647.6
1.48706	9817.97
1.48716	10298.3
1.48725	9912.7
1.48734	10066.1
1.48743	10206.4
1.48752	9801.8
1.48761	10107.2
1.4877	9555.54
1.48779	10512.9
1.48788	9382.27
1.48798	10085.6
1.48807	9599
1.48816	10056.4
1.48825	10031.7
1.48834	9461.1
1.48843	9842.47
1.48852	9377.83
1.48861	10006.2
1.48871	9265.57
1.4888	9808.93
1.48889	9227.3
1.48898	9540.67
1.48907	9625.03
1.48916	9276.4
1.48925	9842.77
1.48934	9106.13
1.48944	9687.5
1.48953	9211.87
1.48962	9780.23
1.48971	9504.6
1.4898	9385.97
1.48989	9448.33
1.48998	9111.7
1.49008	9794.07
1.49017	8957.43
1.49026	9534.8
1.49035	8998.17
1.49044	9360.53
1.49053	9288.9
1.49063	8924.27
1.49072	9363.63
1.49081	8924
1.4909	9535.37
1.49099	8771.73
1.49108	9305.1
1.49117	8981.47
1.49127	9102.83
1.49136	9031.2
1.49145	8951.57
1.49154	9404.93
1.49163	8757.3
1.49172	9045.67
1.49182	8623.03
1.49191	9166.4
1.492	8814.76
1.49209	8784.13
1.49218	8852.5
1.49227	8550.87
1.49237	9050.23
1.49246	8321.6
1.49255	8855.96
1.49264	8314.33
1.49273	8681.7
1.49283	8519.06
1.49292	8513.43
1.49301	8735.8
1.4931	8394.17
1.49319	8904.53
1.49328	8235.9
1.49338	8721.26
1.49347	8534.63
1.49356	8354
1.49365	8285.36
1.49374	8304.73
1.49384	8657.1
1.49393	8220.46
1.49402	8490.83
1.49411	8171.2
1.4942	8370.56
1.4943	8327.93
1.49439	8181.3
1.49448	8348.66
1.49457	8157.03
1.49466	8477.4
1.49476	8108.76
1.49485	8398.13
1.49494	8184.5
1.49503	8159.86
1.49513	8300.23
1.49522	8068.6
1.49531	8279.96
1.4954	7860.33
1.49549	8135.7
1.49559	7944.06
1.49568	8088.43
1.49577	7954.8
1.49586	8083.16
1.49595	7999.53
1.49605	7855.9
1.49614	8185.26
1.49623	7806.63
1.49632	7886
1.49642	7747.36
1.49651	7905.73
1.4966	7911.09
1.49669	7755.46
1.49679	7754.83
1.49688	7625.19
1.49697	7811.56
1.49706	7743.93
1.49716	7622.29
1.49725	7697.66
1.49734	7566.03
1.49743	7633.39
1.49752	7472.76
1.49762	7555.13
1.49771	7527.49
1.4978	7509.86
1.49789	7530.23
1.49799	7418.59
1.49808	7507.96
1.49817	7403.33
1.49826	7534.69
1.49836	7329.06
1.49845	7411.43
1.49854	7429.79
1.49864	7370.16
1.49873	7289.53
1.49882	7179.89
1.49891	7494.26
1.49901	7266.63
1.4991	7307.99
1.49919	7134.36
1.49928	7297.73
1.49938	7360.09
1.49947	7130.46
1.49956	7222.83
1.49965	7311.19
1.49975	7335.56
1.49984	7187.93
1.49993	7069.29
1.50003	7196.66
1.50012	7010.03
1.50021	7235.39
1.5003	7111.76
1.5004	7205.13
1.50049	7077.49
1.50058	7026.86
1.50063	7069.22
1.50072	7029.18
1.50081	6982.6
1.5009	7026.15
1.50099	6993.81
1.50109	6895.48
1.50118	6821.69
1.50127	6942.67
1.50136	6856.56
1.50146	6785.82
1.50155	6849.76
1.50164	6815.38
1.50173	6982.17
1.50183	6763.42
1.50192	6753.68
1.50201	6653.94
1.5021	6574.19
1.5022	6746.45
1.50229	6564.7
1.50238	6538.96
1.50247	6381.22
1.50257	6666.47
1.50266	6554.73
1.50275	6466.99
1.50284	6389.24
1.50294	6386.5
1.50303	6462.76
1.50312	6346.01
1.50322	6323.27
1.50331	6282.53
1.5034	6352.78
1.50349	6362.04
1.50359	6193.29
1.50368	6402.55
1.50377	6142.81
1.50386	6277.06
1.50396	6061.32
1.50405	6219.58
1.50414	6211.83
1.50424	5973.09
1.50433	6075.35
1.50442	5830.6
1.50451	6128.86
1.50461	5980.12
1.5047	6048.37
1.50479	6057.63
1.50489	5900.88
1.50498	6068.14
1.50507	5797.4
1.50516	5921.65
1.50526	5694.91
1.50535	5886.17
1.50544	5932.42
1.50554	5801.68
1.50563	6011.94
1.50572	5619.19
1.50581	5987.45
1.50591	5775.71
1.506	5777.96
1.50609	5627.22
1.50619	5687.47
1.50628	5911.73
1.50637	5585.99
1.50647	5841.24
1.50656	5548.5
1.50665	5699.76
1.50675	5669.01
1.50684	5534.27
1.50693	5672.53
1.50703	5294.78
1.50712	5584.04
1.50721	5408.3
1.5073	5608.55
1.5074	5414.81
1.50749	5473.06
1.50758	5597.32
1.50768	5139.58
1.50777	5566.83
1.50786	5147.09
1.50796	5571.35
1.50805	5315.6
1.50814	5259.86
1.50824	5552.12
1.50833	5013.37
1.50842	5451.63
1.50852	5107.89
1.50861	5455.14
1.5087	5354.4
1.5088	5065.65
1.50889	5373.91
1.50898	4964.17
1.50908	5459.42
1.50917	5015.68
1.50926	5261.94
1.50936	5167.19
1.50945	5135.45
1.50955	5464.71
1.50964	4862.96
1.50973	5272.22
1.50983	4719.48
1.50992	5186.73
1.51001	5076.99
1.51011	4922.24
1.5102	5103.5
1.51029	4728.76
1.51039	5096.01
1.51048	4823.27
1.51058	5017.53
1.51067	4967.78
1.51076	4843.04
1.51086	5165.3
1.51095	4637.55
1.51104	5075.81
1.51114	4540.06
1.51123	5010.32
1.51132	4770.58
1.51142	4676.83
1.51151	5173.09
1.51161	4595.35
1.5117	4894.6
1.51179	4543.86
1.51189	4867.12
1.51198	4828.37
1.51208	4630.63
1.51217	4917.89
1.51226	4407.14
1.51236	4904.4
1.51245	4411.66
1.51254	4721.91
1.51264	4724.17
1.51273	4426.42
1.51283	4935.68
1.51292	4346.94
1.51301	4601.19
1.51311	4418.45
1.5132	4587.71
1.5133	4738.96
1.51339	4273.22
1.51348	4619.48
1.51358	4384.73
1.51367	4794.99
1.51377	4396.25
1.51386	4377.5
1.51396	4463.76
1.51405	4199.01
1.51414	4717.27
1.51424	4163.53
1.51433	4320.78
1.51443	4358.04
1.51452	4245.3
1.51461	4624.55
1.51471	4123.81
1.5148	4357.07
1.5149	4128.32
1.51499	4488.58
1.51509	4308.84
1.51518	4047.09
1.51527	4594.35
1.51537	4021.6
1.51546	4586.86
1.51556	4107.12
1.51565	4288.37
1.51575	4135.63
1.51584	3960.89
1.51594	4401.14
1.51603	3952.4
1.51612	4271.66
1.51622	3978.91
1.51631	4180.17
1.51641	4182.43
1.5165	3897.68
1.5166	4282.94
1.51669	3840.19
1.51679	4308.45
1.51688	3997.71
1.51697	3865.96
1.51707	4073.22
1.51716	3804.48
1.51726	4084.73
1.51735	3879.99
1.51745	3906.25
1.51754	4068.5
1.51764	3904.76
1.51773	4125.02
1.51783	3692.27
1.51792	3953.53
1.51802	3671.78
1.51811	3874.04
1.5182	4050.3
1.5183	3575.55
1.51839	4083.81
1.51849	3691.07
1.51858	3956.32
1.51868	3713.58
1.51877	3707.84
1.51887	3917.09
1.51896	3593.35
1.51906	4033.61
1.51915	3730.86
1.51925	3805.12
1.51934	3696.37
1.51944	3488.63
1.51953	3808.89
1.51963	3432.14
1.51972	3681.4
1.51982	3600.66
1.51991	3696.91
1.52001	3642.17
1.5201	3580.43
1.5202	3940.68
1.52029	3487.94
1.52039	3634.2
1.52048	3528.45
1.52058	3489.71
1.52067	3596.96
1.52077	3334.22
1.52086	3469.48
1.52096	3519.73
1.52105	3423.99
1.52115	3663.25
1.52124	3371.5
1.52134	3633.76
1.52143	3358.02
1.52153	3529.27
1.52162	3490.53
1.52172	3355.79
1.52181	3500.04
1.52191	3237.3
1.522	3577.55
1.5221	3353.81
1.52219	3379.07
1.52229	3273.32
1.52238	3355.58
1.52248	3526.84
1.52258	3172.09
1.52267	3388.35
1.52277	3376.61
1.52286	3314.86
1.52296	3426.12
1.52305	3074.38
1.52315	3377.63
1.52324	3201.89
1.52334	3268.14
1.52343	3295.4
1.52353	3148.66
1.52362	3208.91
1.52372	3060.17
1.52382	3324.43
1.52391	3058.68
1.52401	3104.94
1.5241	3149.2
1.5242	3067.45
1.52429	3242.71
1.52439	3221.97
1.52448	3095.22
1.52458	3167.48
1.52468	3047.73
1.52477	3085.99
1.52487	2943.25
1.52496	3033.5
1.52506	3036.76
1.52515	3061.02
1.52525	3059.27
1.52535	2987.53
1.52544	3072.79
1.52554	2881.04
1.52563	2996.3
1.52573	3035.55
1.52582	2966.81
1.52592	3005.07
1.52602	2925.32
1.52611	3036.58
1.52621	2979.84
1.5263	2894.09
1.5264	2916.35
1.52649	2941.61
1.52659	3013.86
1.52669	2992.12
1.52678	2906.38
1.52688	2922.63
1.52697	2878.89
1.52707	2843.14
1.52717	2904.4
1.52726	2874.66
1.52736	2816.91
1.52745	2902.17
1.52755	2885.43
1.52765	2820.68
1.52774	2852.94
1.52784	2703.2
1.52793	2802.45
1.52803	2821.71
1.52813	2712.97
1.52822	2752.22
1.52832	2835.48
1.52841	2788.73
1.52851	2682.99
1.52861	2744.25
1.5287	2680.5
1.5288	2708.76
1.5289	2564.02
1.52899	2775.27
1.52909	2638.53
1.52918	2660.79
1.52928	2712.04
1.52938	2623.3
1.52947	2742.56
1.52957	2623.81
1.52966	2666.07
1.52976	2716.32
1.52986	2575.58
1.52995	2710.84
1.53005	2570.09
1.53015	2559.35
1.53024	2628.61
1.53034	2565.86
1.53044	2688.12
1.53053	2678.38
1.53063	2604.63
1.53073	2587.89
1.53082	2676.15
1.53092	2595.4
1.53101	2537.66
1.53111	2503.91
1.53121	2582.17
1.5313	2519.43
1.5314	2654.68
1.5315	2453.94
1.53159	2528.2
1.53169	2443.45
1.53179	2449.71
1.53188	2565.97
1.53198	2406.22
1.53208	2482.48
1.53217	2388.74
1.53227	2447.99
1.53237	2515.25
1.53246	2308.5
1.53256	2565.76
1.53266	2461.02
1.53275	2449.27
1.53285	2408.53
1.53295	2358.79
1.53304	2412.04
1.53314	2255.3
1.53324	2457.56
1.53333	2371.81
1.53343	2269.07
1.53353	2392.33
1.53362	2334.58
1.53372	2432.84
1.53382	2344.09
1.53391	2281.35
1.53401	2347.61
1.53411	2242.86
1.53421	2396.12
1.5343	2342.38
1.5344	2320.63
1.5345	2287.89
1.53459	2250.15
1.53469	2328.4
1.53479	2239.66
1.53488	2237.92
1.53498	2350.17
1.53508	2179.43
1.53518	2312.68
1.53527	2184.94
1.53537	2192.2
1.53547	2371.45
1.53556	2174.71
1.53566	2356.97
1.53576	2128.22
1.53586	2194.48
1.53595	2341.74
1.53605	2089.99
1.53615	2182.25
1.53624	2104.51
1.53634	2180.76
1.53644	2222.02
1.53654	2043.27
1.53663	2148.53
1.53673	2101.79
1.53683	2174.04
1.53692	2065.3
1.53702	1998.56
1.53712	2161.81
1.53722	2002.07
1.53731	2228.33
1.53741	2147.58
1.53751	2139.84
1.53761	2087.1
1.5377	2026.35
1.5378	2198.61
1.5379	2064.86
1.538	2066.12
1.53809	2174.38
1.53819	1959.63
1.53829	2226.89
1.53839	2018.15
1.53848	1996.4
1.53858	2062.66
1.53868	2050.92
1.53878	2064.17
1.53887	1862.43
1.53897	2019.69
1.53907	2091.94
1.53917	1941.2
1.53926	2155.45
1.53936	1927.71
1.53946	1999.97
1.53956	2032.22
1.53965	1904.48
1.53975	2068.74
1.53985	1970.99
1.53995	1987.25
1.54005	2012.51
1.54014	1838.76
1.54024	2006.02
1.54034	1805.28
1.54044	1896.53
1.54053	2023.79
1.54063	1808.04
1.54073	2078.3
1.54083	1821.56
1.54093	1929.81
1.54102	1931.07
1.54112	1761.33
1.54122	1933.58
1.54132	1795.84
1.54142	1900.1
1.54151	1947.35
1.54161	1773.61
1.54171	1923.87
1.54181	1683.12
1.5419	1911.38
1.542	1872.63
1.5421	1765.89
1.5422	1901.15
1.5423	1686.4
1.54239	1942.66
1.54249	1882.92
1.54259	1721.17
1.54269	1799.43
1.54279	1732.69
1.54289	1850.94
1.54298	1810.2
1.54308	1725.46
1.54318	1845.71
1.54328	1786.97
1.54338	1805.22
1.54347	1801.48
1.54357	1671.74
1.54367	1821.99
1.54377	1793.25
1.54387	1652.51
1.54397	1739.76
1.54406	1673.02
1.54416	1782.28
1.54426	1729.53
1.54436	1677.79
1.54446	1683.05
1.54456	1640.3
1.54465	1746.56
1.54475	1668.81
1.54485	1660.07
1.54495	1760.33
1.54505	1540.58
1.54515	1836.84
1.54524	1589.1
1.54534	1672.35
1.54544	1691.61
1.54554	1577.87
1.54564	1779.12
1.54574	1545.38
1.54584	1519.64
1.54593	1677.89
1.54603	1524.15
1.54613	1707.4
1.54623	1545.66
1.54633	1577.92
1.54643	1603.17
1.54653	1490.43
1.54662	1606.69
1.54672	1484.94
1.54682	1628.2
1.54692	1596.46
1.54702	1527.71
1.54712	1632.97
1.54722	1526.23
1.54732	1480.48
1.54741	1606.74
1.54751	1497.99
1.54761	1552.25
1.54771	1497.51
1.54781	1577.76
1.54791	1466.02
1.54801	1426.28
1.54811	1552.53
1.5482	1479.79
1.5483	1499.05
1.5484	1570.3
1.5485	1400.56
1.5486	1572.82
1.5487	1525.07
1.5488	1487.33
1.5489	1569.58
1.549	1453.84
1.54909	1532.1
1.54919	1476.35
1.54929	1448.61
1.54939	1497.87
1.54949	1411.12
1.54959	1581.38
1.54969	1435.64
1.54979	1308.89
1.54989	1466.15
1.54999	1375.41
1.55009	1365.66
1.55018	1451.92
1.55028	1353.17
1.55038	1435.43
1.55048	1335.69
1.55058	1389.94
1.55068	1456.2
1.55078	1410.46
1.55088	1370.71
1.55098	1349.97
1.55108	1396.23
1.55118	1462.48
1.55128	1366.74
1.55138	1393.99
1.55147	1298.25
1.55157	1328.51
1.55167	1399.76
1.55177	1285.02
1.55187	1323.28
1.55197	1292.53
1.55207	1247.79
1.55217	1361.05
1.55227	1256.3
1.55237	1362.56
1.55247	1300.82
1.55257	1240.07
1.55267	1359.33
1.55277	1249.58
1.55287	1323.84
1.55297	1253.1
1.55307	1264.35
1.55317	1213.61
1.55326	1310.87
1.55336	1288.12
1.55346	1307.38
1.55356	1248.64
1.55366	1236.89
1.55376	1176.15
1.55386	1269.41
1.55396	1322.66
1.55406	1172.92
1.55416	1278.17
1.55426	1208.43
1.55436	1158.69
1.55446	1284.94
1.55456	1200.2
1.55466	1189.46
1.55476	1169.71
1.55486	1152.97
1.55496	1156.23
1.55506	1148.48
1.55516	1139.74
1.55526	1159
1.55536	1141.25
1.55546	1144.51
1.55556	1232.76
1.55566	1178.02
1.55576	1153.28
1.55586	1134.53
1.55596	1238.79
1.55606	1173.05
1.55616	1163.3
1.55626	1154.56
1.55636	1219.82
1.55646	1188.07
1.55656	1080.33
1.55666	1097.59
1.55676	1122.84
1.55686	1145.1
1.55696	1065.35
1.55706	1106.61
1.55716	1077.87
1.55726	1163.12
1.55736	1091.38
1.55746	1160.64
1.55756	1086.89
1.55766	1112.15
1.55776	1068.41
1.55786	1015.66
1.55796	1118.92
1.55806	1101.18
1.55816	1112.43
1.55826	1145.69
1.55836	1059.94
1.55846	1027.2
1.55856	1048.46
1.55866	1127.71
1.55876	1085.97
1.55886	1054.23
1.55896	1103.48
1.55906	1055.74
1.55916	1098
1.55926	1053.25
1.55936	1030.51
1.55947	1055.77
1.55957	1021.02
1.55967	976.278
1.55977	972.535
1.55987	962.791
1.55997	1059.05
1.56007	1014.3
1.56017	1003.56
1.56027	968.817
1.56037	967.073
1.56047	1056.33
1.56057	1028.59
1.56067	914.843
1.56077	1032.1
1.56087	967.355
1.56097	1075.61
1.56107	1080.87
1.56118	962.125
1.56128	1047.38
1.56138	1013.64
1.56148	993.894
1.56158	1011.15
1.56168	918.407
1.56178	1019.66
1.56188	959.92
1.56198	895.176
1.56208	952.432
1.56218	963.689
1.56228	928.945
1.56238	995.202
1.56249	916.458
1.56259	943.715
1.56269	906.971
1.56279	848.227
1.56289	944.484
1.56299	909.74
1.56309	960.997
1.56319	1008.25
1.56329	786.51
1.56339	938.766
1.56349	988.022
1.5636	900.279
1.5637	914.535
1.5638	906.792
1.5639	898.048
1.564	841.305
1.5641	874.561
1.5642	939.817
1.5643	849.074
1.5644	908.33
1.56451	961.587
1.56461	892.843
1.56471	970.1
1.56481	905.356
1.56491	840.612
1.56501	906.869
1.56511	815.125
1.56521	917.382
1.56532	923.638
1.56542	874.895
1.56552	843.151
1.56562	843.407
1.56572	806.664
1.56582	907.92
1.56592	792.177
1.56602	937.433
1.56613	877.69
1.56623	823.946
1.56633	880.202
1.56643	805.459
1.56653	859.715
1.56663	754.972
1.56673	748.228
1.56684	811.484
1.56694	796.741
1.56704	808.997
1.56714	838.254
1.56724	767.51
1.56734	801.767
1.56744	806.023
1.56755	803.279
1.56765	823.536
1.56775	770.792
1.56785	835.049
1.56795	877.305
1.56805	789.562
1.56816	815.818
1.56826	776.074
1.56836	744.331
1.56846	840.587
1.56856	763.844
1.56866	819.1
1.56877	811.357
1.56887	741.613
1.56897	769.869
1.56907	728.126
1.56917	739.382
1.56928	832.639
1.56938	781.895
1.56948	710.152
1.56958	790.408
1.56968	747.664
1.56978	802.921
1.56989	809.177
1.56999	764.434
1.57009	733.69
1.57019	703.947
1.57029	716.203
1.5704	749.459
1.5705	728.716
1.5706	839.972
1.5707	699.229
1.5708	752.485
1.57091	823.742
1.57101	686.998
1.57111	786.254
1.57121	775.511
1.57131	661.767
1.57142	743.024
1.57152	689.28
1.57162	661.537
1.57172	733.793
1.57183	708.049
1.57193	760.306
1.57203	688.562
1.57213	672.819
1.57223	702.075
1.57234	665.331
1.57244	664.588
1.57254	643.844
1.57264	711.101
1.57275	742.357
1.57285	688.614
1.57295	619.87
1.57305	737.127
1.57315	732.383
1.57326	682.639
1.57336	722.896
1.57346	673.152
1.57356	607.409
1.57367	688.665
1.57377	632.921
1.57387	698.178
1.57397	667.434
1.57408	658.691
1.57418	714.947
1.57428	656.204
1.57438	688.46
1.57449	599.716
1.57459	646.973
1.57469	668.229
1.57479	655.486
1.5749	577.742
1.575	665.999
1.5751	570.255
1.57521	615.511
1.57531	652.768
1.57541	647.024
1.57551	647.281
1.57562	653.537
1.57572	588.794
1.57582	642.05
1.57592	623.306
1.57603	579.563
1.57613	672.819
1.57623	591.076
1.57634	639.332
1.57644	617.589
1.57654	596.845
1.57664	654.101
1.57675	635.358
1.57685	594.614
1.57695	609.871
1.57706	550.127
1.57716	588.384
1.57726	615.64
1.57736	588.896
1.57747	625.153
1.57757	595.409
1.57767	547.666
1.57778	603.922
1.57788	572.178
1.57798	589.435
1.57809	586.691
1.57819	531.948
1.57829	596.204
1.57839	563.461
1.5785	580.717
1.5786	537.973
1.5787	512.23
1.57881	524.486
1.57891	529.743
1.57901	583.999
1.57912	544.256
1.57922	567.512
1.57932	509.768
1.57943	615.025
1.57953	569.281
1.57963	507.538
1.57974	537.794
1.57984	506.051
1.57994	554.307
1.58005	556.563
1.58015	528.82
1.58025	573.076
1.58036	471.333
1.58046	548.589
1.58056	527.846
1.58067	504.102
1.58077	495.358
1.58087	511.615
1.58098	477.871
1.58108	541.128
1.58118	560.384
1.58129	503.641
1.58139	525.897
1.58149	500.153
1.5816	486.41
1.5817	575.666
1.58181	509.923
1.58191	505.179
1.58201	455.435
1.58212	510.692
1.58222	480.948
1.58232	440.205
1.58243	477.461
1.58253	485.718
1.58263	516.974
1.58274	492.231
1.58284	490.487
1.58295	488.743
1.58305	500
1.58315	505.256
1.58326	496.513
1.58336	467.769
1.58346	447.026
1.58357	465.282
1.58367	511.538
1.58378	481.795
1.58388	468.051
1.58398	479.308
1.58409	520.564
1.58419	465.82
1.5843	460.077
1.5844	490.333
1.5845	499.59
1.58461	444.846
1.58471	481.103
1.58482	488.359
1.58492	472.615
1.58502	437.872
1.58513	452.128
1.58523	450.385
1.58534	418.641
1.58544	441.898
1.58554	505.154
1.58565	440.41
1.58575	430.667
1.58586	464.923
1.58596	454.18
1.58606	465.436
1.58617	465.693
1.58627	410.949
1.58638	431.205
1.58648	463.462
1.58659	384.718
1.58669	434.975
1.58679	462.231
1.5869	405.488
1.587	423.744
1.58711	394
1.58721	450.257
1.58732	398.513
1.58742	451.77
1.58752	455.026
1.58763	403.283
1.58773	388.539
1.58784	396.795
1.58794	438.052
1.58805	467.308
1.58815	472.565
1.58826	404.821
1.58836	425.077
1.58847	446.334
1.58857	402.59
1.58867	432.847
1.58878	364.103
1.58888	403.36
1.58899	437.616
1.58909	365.872
1.5892	413.129
1.5893	442.385
1.58941	393.642
1.58951	389.898
1.58962	433.155
1.58972	372.411
1.58983	425.667
1.58993	380.924
1.59003	332.18
1.59014	413.437
1.59024	397.693
1.59035	382.95
1.59045	379.206
1.59056	376.462
1.59066	344.719
1.59077	364.975
1.59087	338.232
1.59098	377.488
1.59108	425.745
1.59119	419.001
1.59129	385.257
1.5914	352.514
1.5915	404.77
1.59161	410.027
1.59171	383.283
1.59182	409.54
1.59192	365.796
1.59203	369.052
1.59213	359.309
1.59224	330.565
1.59234	370.822
1.59245	428.078
1.59255	391.335
1.59266	310.591
1.59276	381.847
1.59287	371.104
1.59297	325.36
1.59308	370.617
1.59318	354.873
1.59329	356.13
1.59339	434.386
1.5935	342.642
1.59361	344.899
1.59371	383.155
1.59382	390.412
1.59392	368.668
1.59403	426.924
1.59413	286.181
1.59424	413.437
1.59434	388.694
1.59445	351.95
1.59455	340.207
1.59466	395.463
1.59476	323.719
1.59487	396.976
1.59498	362.232
1.59508	332.489
1.59519	416.745
1.59529	338.002
1.5954	369.258
1.5955	406.514
1.59561	284.771
1.59571	327.027
1.59582	348.284
1.59592	353.54
1.59603	362.797
1.59614	359.053
1.59624	305.309
1.59635	394.566
1.59645	403.822
1.59656	356.079
1.59666	333.335
1.59677	333.592
1.59688	316.848
1.59698	365.104
1.59709	307.361
1.59719	347.617
1.5973	374.874
1.5974	314.13
1.59751	337.387
1.59762	347.643
1.59772	335.899
1.59783	353.156
1.59793	325.412
1.59804	314.669
1.59815	366.925
1.59825	346.182
1.59836	351.438
1.59846	375.694
1.59857	359.951
1.59868	331.207
1.59878	363.464
1.59889	330.72
1.59899	291.977
1.5991	364.233
1.59913	340.686
1.59923	313.787
1.59934	374.421
1.59944	356.144
1.59955	352.391
1.59966	317.371
1.59976	303.172
1.59987	333.907
1.59997	298.704
1.60008	296.798
1.60018	322.925
1.60029	200.052
1.60039	244.179
1.6005	223.306
1.60061	184.433
1.60071	216.56
1.60082	202.687
1.60092	140.814
1.60103	168.941
1.60113	163.068
1.60124	152.195
1.60135	187.322
1.60145	131.448
1.60156	140.575
1.60166	139.702
1.60177	102.829
1.60188	54.9563
1.60198	111.083
1.60209	76.2104
1.60219	53.3373
1.6023	4.46426
1.6024	4.59125
1.60251	78.7182
1.60262	68.8452
1.60272	25.9721
1.60283	-1.90085
1.60293	25.2261
1.60304	-59.6469
1.60315	13.4801
1.60325	-62.393
1.60336	-64.266
1.60346	-91.1391
1.60357	-39.0121
1.60368	-113.885
1.60378	-68.7581
1.60389	-126.631
1.60399	-113.504
1.6041	-68.3772
1.60421	-122.25
1.60431	-99.1233
1.60442	-146.996
1.60453	-124.869
1.60463	-131.742
1.60474	-116.615
1.60484	-190.488
1.60495	-127.361
1.60506	-181.235
1.60516	-170.107
1.60527	-144.981
1.60538	-163.854
1.60548	-159.727
1.60559	-224.6
1.6057	-241.473
1.6058	-216.346
1.60591	-221.219
1.60601	-234.092
1.60612	-259.965
1.60623	-279.838
1.60633	-245.711
1.60644	-243.584
1.60655	-246.457
1.60665	-289.33
1.60676	-232.203
1.60687	-264.076
1.60697	-251.949
1.60708	-309.822
1.60719	-246.695
1.60729	-296.568
1.6074	-340.441
1.60751	-279.314
1.60761	-310.187
1.60772	-322.06
1.60783	-334.933
1.60793	-345.806
1.60804	-326.679
1.60815	-409.552
1.60825	-334.425
1.60836	-344.298
1.60847	-308.171
1.60857	-344.044
1.60868	-353.917
1.60879	-370.79
1.60889	-380.664
1.609	-370.537
1.60911	-352.41
1.60921	-416.283
1.60932	-424.156
1.60943	-379.029
1.60954	-450.902
1.60964	-428.775
1.60975	-372.648
1.60986	-421.521
1.60996	-443.394
1.61007	-392.267
1.61018	-406.14
1.61028	-436.013
1.61039	-427.886
1.6105	-470.759
1.61061	-480.632
1.61071	-427.505
1.61082	-443.378
1.61093	-437.251
1.61103	-464.124
1.61114	-493.997
1.61125	-431.87
1.61136	-493.743
1.61146	-470.616
1.61157	-444.489
1.61168	-454.362
1.61178	-502.235
1.61189	-486.108
1.612	-467.981
1.61211	-505.854
1.61221	-498.727
1.61232	-487.6
1.61243	-514.474
1.61254	-533.347
1.61264	-470.22
1.61275	-572.093
1.61286	-496.966
1.61297	-528.839
1.61307	-505.712
1.61318	-528.585
1.61329	-522.458
1.6134	-571.331
1.6135	-555.204
1.61361	-546.077
1.61372	-520.95
1.61383	-529.823
1.61393	-574.696
1.61404	-539.569
1.61415	-576.442
1.61426	-531.315
1.61436	-584.188
1.61447	-564.061
1.61458	-527.934
1.61469	-566.807
1.61479	-558.68
1.6149	-592.553
1.61501	-601.426
1.61512	-584.299
1.61523	-533.172
1.61533	-542.045
1.61544	-578.918
1.61555	-593.791
1.61566	-589.664
1.61576	-606.537
1.61587	-579.41
1.61598	-553.283
1.61609	-528.156
1.6162	-637.03
1.6163	-578.903
1.61641	-595.776
1.61652	-604.649
1.61663	-606.522
1.61674	-639.395
1.61684	-620.268
1.61695	-609.141
1.61706	-613.014
1.61717	-608.887
1.61728	-567.76
1.61738	-595.633
1.61749	-596.506
1.6176	-636.379
1.61771	-618.252
1.61782	-610.125
1.61792	-621.998
1.61803	-680.871
1.61814	-632.744
1.61825	-631.617
1.61836	-666.49
1.61847	-647.363
1.61857	-580.236
1.61868	-661.109
1.61879	-698.982
1.6189	-609.855
1.61901	-643.728
1.61912	-627.601
1.61922	-611.474
1.61933	-668.347
1.61944	-624.22
1.61955	-658.093
1.61966	-652.966
1.61977	-659.839
1.61987	-624.713
1.61998	-661.585
1.62009	-608.459
1.6202	-615.332
1.62031	-655.205
1.62042	-658.078
1.62053	-702.951
1.62063	-694.824
1.62074	-672.697
1.62085	-669.57
1.62096	-682.443
1.62107	-670.316
1.62118	-651.189
1.62129	-683.062
1.62139	-704.935
1.6215	-659.808
1.62161	-656.681
1.62172	-653.554
1.62183	-704.427
1.62194	-679.3
1.62205	-698.173
1.62216	-658.046
1.62226	-655.919
1.62237	-647.792
1.62248	-712.665
1.62259	-731.538
1.6227	-668.411
1.62281	-681.284
1.62292	-722.157
1.62303	-719.03
1.62313	-624.903
1.62324	-731.776
1.62335	-691.649
1.62346	-654.522
1.62357	-706.396
1.62368	-688.268
1.62379	-685.142
1.6239	-688.015
1.62401	-702.888
1.62412	-685.761
1.62423	-717.634
1.62433	-684.507
1.62444	-689.38
1.62455	-704.253
1.62466	-678.126
1.62477	-672.999
1.62488	-718.872
1.62499	-740.745
1.6251	-704.618
1.62521	-671.491
1.62532	-683.364
1.62543	-740.237
1.62554	-722.11
1.62564	-697.983
1.62575	-676.856
1.62586	-695.729
1.62597	-756.602
1.62608	-699.475
1.62619	-732.348
1.6263	-725.221
1.62641	-679.094
1.62652	-718.967
1.62663	-732.84
1.62674	-710.713
1.62685	-699.586
1.62696	-712.459
1.62707	-759.332
1.62718	-729.205
1.62729	-725.078
1.6274	-683.951
1.6275	-702.824
1.62761	-733.698
1.62772	-698.571
1.62783	-721.444
1.62794	-741.317
1.62805	-712.19
1.62816	-712.063
1.62827	-717.936
1.62838	-718.809
1.62849	-771.682
1.6286	-744.555
1.62871	-693.428
1.62882	-719.301
1.62893	-756.174
1.62904	-726.047
1.62915	-717.92
1.62926	-706.793
1.62937	-697.666
1.62948	-776.539
1.62959	-766.412
1.6297	-718.285
1.62981	-757.158
1.62992	-772.031
1.63003	-744.904
1.63014	-724.777
1.63025	-754.65
1.63036	-722.523
1.63047	-763.396
1.63058	-762.269
1.63069	-696.142
1.6308	-715.015
1.63091	-773.888
1.63102	-728.761
1.63113	-747.634
1.63124	-757.507
1.63135	-701.38
1.63146	-746.254
1.63157	-747.127
1.63168	-741
1.63179	-728.873
1.6319	-748.746
1.63201	-742.619
1.63212	-736.492
1.63223	-760.365
1.63234	-720.238
1.63245	-776.111
1.63256	-741.984
1.63267	-765.857
1.63278	-758.73
1.63289	-751.603
1.633	-787.476
1.63311	-731.349
1.63322	-752.222
1.63333	-733.095
1.63345	-728.968
1.63356	-760.841
1.63367	-748.714
1.63378	-773.587
1.63389	-765.46
1.634	-729.333
1.63411	-737.206
1.63422	-751.079
1.63433	-747.952
1.63444	-770.825
1.63455	-766.698
1.63466	-750.571
1.63477	-749.444
1.63488	-731.317
1.63499	-745.19
1.6351	-711.063
1.63521	-768.937
1.63533	-740.81
1.63544	-745.683
1.63555	-775.556
1.63566	-774.429
1.63577	-764.302
1.63588	-747.175
1.63599	-730.048
1.6361	-741.921
1.63621	-774.794
1.63632	-760.667
1.63643	-762.54
1.63654	-754.413
1.63665	-737.286
1.63677	-764.159
1.63688	-777.032
1.63699	-801.905
1.6371	-745.778
1.63721	-760.651
1.63732	-752.524
1.63743	-744.397
1.63754	-714.27
1.63765	-773.143
1.63776	-732.016
1.63788	-775.889
1.63799	-754.762
1.6381	-780.635
1.63821	-747.508
1.63832	-789.381
1.63843	-781.254
1.63854	-731.127
1.63865	-762
1.63877	-736.873
1.63888	-779.746
1.63899	-777.62
1.6391	-753.493
1.63921	-734.366
1.63932	-794.239
1.63943	-775.112
1.63954	-770.985
1.63966	-755.858
1.63977	-795.731
1.63988	-726.604
1.63999	-745.477
1.6401	-729.35
1.64021	-772.223
1.64032	-759.096
1.64044	-736.969
1.64055	-774.842
1.64066	-720.715
1.64077	-736.588
1.64088	-802.461
1.64099	-774.334
1.6411	-741.207
1.64122	-737.08
1.64133	-750.953
1.64144	-785.826
1.64155	-766.699
1.64166	-735.572
1.64177	-760.445
1.64189	-767.318
1.642	-742.191
1.64211	-736.064
1.64222	-748.937
1.64233	-722.81
1.64244	-751.683
1.64256	-784.556
1.64267	-738.43
1.64278	-804.302
1.64289	-745.176
1.643	-755.049
1.64312	-722.922
1.64323	-760.795
1.64334	-706.668
1.64345	-720.541
1.64356	-751.414
1.64367	-747.287
1.64379	-749.16
1.6439	-745.033
1.64401	-742.906
1.64412	-700.779
1.64423	-774.652
1.64435	-782.525
1.64446	-750.398
1.64457	-742.271
1.64468	-759.144
1.6448	-741.017
1.64491	-717.89
1.64502	-723.763
1.64513	-702.636
1.64524	-761.509
1.64536	-737.382
1.64547	-707.255
1.64558	-750.128
1.64569	-756.001
1.6458	-752.874
1.64592	-736.747
1.64603	-735.62
1.64614	-737.493
1.64625	-754.366
1.64637	-735.239
1.64648	-721.112
1.64659	-757.985
1.6467	-758.859
1.64682	-752.732
1.64693	-709.605
1.64704	-737.478
1.64715	-766.351
1.64727	-718.224
1.64738	-746.097
1.64749	-744.97
1.6476	-734.843
1.64772	-709.716
1.64783	-742.589
1.64794	-752.462
1.64805	-740.335
1.64817	-736.208
1.64828	-762.081
1.64839	-723.954
1.6485	-776.827
1.64862	-743.7
1.64873	-716.573
1.64884	-735.446
1.64895	-687.319
1.64907	-746.192
1.64918	-776.065
1.64929	-735.938
1.64941	-734.811
1.64952	-730.684
1.64963	-770.557
1.64974	-751.43
1.64986	-705.303
1.64997	-721.176
1.65008	-744.049
1.6502	-730.922
1.65031	-761.795
1.65042	-749.668
1.65053	-715.542
1.65065	-727.415
1.65076	-727.288
1.65087	-752.161
1.65099	-707.034
1.6511	-752.907
1.65121	-737.78
1.65133	-734.653
1.65144	-695.526
1.65155	-747.399
1.65167	-750.272
1.65178	-737.145
1.65189	-758.018
1.652	-717.891
1.65212	-723.764
1.65223	-756.637
1.65234	-729.51
1.65246	-766.383
1.65257	-704.256
1.65268	-715.129
1.6528	-719.002
1.65291	-751.875
1.65302	-735.748
1.65314	-755.621
1.65325	-728.494
1.65336	-711.367
1.65348	-749.24
1.65359	-706.113
1.6537	-747.986
1.65382	-743.859
1.65393	-723.732
1.65404	-757.605
1.65416	-707.478
1.65427	-707.351
1.65439	-722.224
1.6545	-725.098
1.65461	-678.971
1.65473	-696.844
1.65484	-743.717
1.65495	-724.59
1.65507	-710.463
1.65518	-740.336
1.65529	-688.209
1.65541	-693.082
1.65552	-707.955
1.65563	-724.828
1.65575	-700.701
1.65586	-705.574
1.65598	-717.447
1.65609	-747.32
1.6562	-730.193
1.65632	-705.066
1.65643	-670.939
1.65655	-740.812
1.65666	-709.685
1.65677	-709.558
1.65689	-741.431
1.657	-719.304
1.65711	-720.177
1.65723	-744.05
1.65734	-696.923
1.65746	-755.796
1.65757	-687.669
1.65768	-729.542
1.6578	-716.415
1.65791	-703.288
1.65803	-687.161
1.65814	-709.034
1.65826	-737.907
1.65837	-729.781
1.65848	-706.654
1.6586	-726.527
1.65871	-744.4
1.65883	-698.273
1.65894	-699.146
1.65905	-724.019
1.65917	-734.892
1.65928	-710.765
1.6594	-732.638
1.65951	-735.511
1.65963	-661.384
1.65974	-676.257
1.65985	-709.13
1.65997	-733.003
1.66008	-712.876
1.6602	-686.749
1.66031	-689.622
1.66043	-670.495
1.66054	-698.368
1.66066	-704.241
1.66077	-675.114
1.66088	-684.987
1.661	-697.86
1.66111	-665.733
1.66123	-674.606
1.66134	-709.479
1.66146	-747.352
1.66157	-689.225
1.66169	-657.098
1.6618	-700.971
1.66192	-694.844
1.66203	-722.717
1.66214	-680.591
1.66226	-704.463
1.66237	-683.337
1.66249	-704.21
1.6626	-691.083
1.66272	-671.956
1.66283	-669.829
1.66295	-660.702
1.66306	-675.575
1.66318	-684.448
1.66329	-711.321
1.66341	-697.194
1.66352	-677.067
1.66364	-688.94
1.66375	-684.813
1.66387	-691.686
1.66398	-669.559
1.6641	-668.432
1.66421	-652.305
1.66433	-653.178
1.66444	-730.051
1.66456	-684.924
1.66467	-670.797
1.66479	-621.67
1.6649	-663.543
1.66502	-685.416
1.66513	-677.289
1.66525	-698.162
1.66536	-663.035
1.66548	-660.908
1.66559	-650.781
1.66571	-631.654
1.66582	-669.527
1.66594	-685.4
1.66605	-679.273
1.66617	-658.146
1.66628	-668.02
1.6664	-701.893
1.66651	-626.766
1.66663	-697.639
1.66675	-711.512
1.66686	-660.385
1.66698	-648.258
1.66709	-662.131
1.66721	-637.004
1.66732	-682.877
1.66744	-673.75
1.66755	-644.623
1.66767	-675.496
1.66778	-647.369
1.6679	-688.242
1.66802	-665.115
1.66813	-669.988
1.66825	-661.861
1.66836	-641.734
1.66848	-645.607
1.66859	-645.48
1.66871	-631.353
1.66883	-639.226
1.66894	-648.099
1.66906	-629.972
1.66917	-650.845
1.66929	-635.718
1.6694	-646.591
1.66952	-646.464
1.66964	-656.337
1.66975	-604.21
1.66987	-669.083
1.66998	-636.956
1.6701	-666.829
1.67021	-665.703
1.67033	-652.576
1.67045	-636.449
1.67056	-654.322
1.67068	-634.195
1.67079	-592.068
1.67091	-638.941
1.67103	-620.814
1.67114	-648.687
1.67126	-670.56
1.67137	-640.433
1.67149	-666.306
1.67161	-623.179
1.67172	-662.052
1.67184	-649.925
1.67196	-658.798
1.67207	-628.671
1.67219	-618.544
1.6723	-628.417
1.67242	-624.29
1.67254	-643.163
1.67265	-629.036
1.67277	-599.909
1.67288	-647.782
1.673	-642.655
1.67312	-599.528
1.67323	-602.401
1.67335	-657.274
1.67347	-589.147
1.67358	-579.02
1.6737	-657.893
1.67382	-613.766
1.67393	-643.639
1.67405	-638.513
1.67417	-614.385
1.67428	-603.258
1.6744	-626.132
1.67451	-647.005
1.67463	-597.878
1.67475	-610.751
1.67486	-606.624
1.67498	-613.497
1.6751	-585.37
1.67521	-600.243
1.67533	-590.116
1.67545	-634.989
1.67556	-592.862
1.67568	-600.735
1.6758	-618.608
1.67591	-616.481
1.67603	-584.354
1.67615	-609.227
1.67626	-583.1
1.67638	-590.973
1.6765	-623.846
1.67662	-592.719
1.67673	-616.592
1.67685	-598.465
1.67697	-589.338
1.67708	-590.211
1.6772	-595.084
1.67732	-616.957
1.67743	-611.83
1.67755	-631.703
1.67767	-643.576
1.67778	-579.449
1.6779	-580.322
1.67802	-591.195
1.67814	-619.068
1.67825	-587.941
1.67837	-583.815
1.67849	-591.688
1.6786	-568.561
1.67872	-580.434
1.67884	-565.307
1.67896	-617.18
1.67907	-586.053
1.67919	-578.926
1.67931	-595.799
1.67942	-632.672
1.67954	-612.545
1.67966	-581.418
1.67978	-588.291
1.67989	-585.164
1.68001	-616.037
1.68013	-560.91
1.68025	-593.783
1.68036	-573.656
1.68048	-596.529
1.6806	-592.402
1.68072	-557.275
1.68083	-589.148
1.68095	-547.021
1.68107	-577.894
1.68119	-590.767
1.6813	-629.64
1.68142	-575.513
1.68154	-605.386
1.68166	-569.259
1.68177	-576.132
1.68189	-576.005
1.68201	-541.878
1.68213	-574.751
1.68224	-571.624
1.68236	-601.498
1.68248	-577.371
1.6826	-547.244
1.68271	-573.117
1.68283	-544.99
1.68295	-528.863
1.68307	-551.736
1.68319	-569.609
1.6833	-547.482
1.68342	-539.355
1.68354	-609.228
1.68366	-526.101
1.68378	-577.974
1.68389	-553.847
1.68401	-549.72
1.68413	-541.593
1.68425	-580.466
1.68437	-549.339
1.68448	-579.212
1.6846	-575.085
1.68472	-546.958
1.68484	-548.831
1.68496	-547.704
1.68507	-573.577
1.68519	-509.45
1.68531	-547.323
1.68543	-529.196
1.68555	-593.069
1.68566	-533.942
1.68578	-584.815
1.6859	-573.688
1.68602	-558.561
1.68614	-576.434
1.68626	-554.307
1.68637	-525.18
1.68649	-565.053
1.68661	-607.927
1.68673	-516.8
1.68685	-519.673
1.68697	-550.546
1.68708	-539.419
1.6872	-517.292
1.68732	-526.165
1.68744	-536.038
1.68756	-548.911
1.68768	-518.784
1.6878	-535.657
1.68791	-543.53
1.68803	-521.403
1.68815	-540.276
1.68827	-529.149
1.68839	-512.022
1.68851	-549.895
1.68863	-539.768
1.68874	-532.641
1.68886	-509.514
1.68898	-530.387
1.6891	-554.26
1.68922	-516.133
1.68934	-546.006
1.68946	-530.879
1.68958	-521.752
1.68969	-557.625
1.68981	-480.498
1.68993	-533.371
1.69005	-499.244
1.69017	-492.117
1.69029	-546.99
1.69041	-525.863
1.69053	-534.736
1.69064	-519.61
1.69076	-509.483
1.69088	-499.356
1.691	-529.229
1.69112	-513.102
1.69124	-503.975
1.69136	-505.848
1.69148	-523.721
1.6916	-454.594
1.69172	-510.467
1.69184	-547.34
1.69195	-495.213
1.69207	-469.086
1.69219	-514.959
1.69231	-487.832
1.69243	-559.705
1.69255	-487.578
1.69267	-523.451
1.69279	-491.324
1.69291	-506.197
1.69303	-477.07
1.69315	-478.943
1.69327	-546.816
1.69339	-504.689
1.69351	-505.562
1.69362	-528.435
1.69374	-493.308
1.69386	-476.181
1.69398	-520.054
1.6941	-470.927
1.69422	-466.8
1.69434	-473.673
1.69446	-496.546
1.69458	-477.419
1.6947	-506.293
1.69482	-523.166
1.69494	-483.039
1.69506	-476.912
1.69518	-492.785
1.6953	-515.658
1.69542	-485.531
1.69554	-453.404
1.69566	-465.277
1.69578	-505.15
1.6959	-504.023
1.69602	-492.896
1.69614	-474.769
1.69626	-440.642
1.69638	-438.515
1.6965	-464.388
1.69662	-490.261
1.69674	-468.134
1.69686	-509.007
1.69698	-486.88
1.6971	-503.753
1.69721	-488.626
1.69733	-462.499
1.69745	-479.372
1.69757	-487.245
1.69769	-507.118
1.69781	-462.991
1.69793	-433.864
1.69806	-466.737
1.69818	-427.61
1.6983	-423.483
1.69842	-441.356
1.69854	-459.229
1.69866	-451.102
1.69878	-419.976
1.6989	-413.849
1.69902	-446.722
1.69914	-439.595
1.69926	-457.468
1.69938	-453.341
1.6995	-454.214
1.69962	-413.087
1.69974	-398.96
1.69986	-450.833
1.69998	-442.706
1.7001	-432.579
1.70022	-461.452
1.70034	-436.325
1.70046	-422.198
1.70058	-436.071
1.7007	-424.944
1.70082	-454.817
1.70094	-473.69
1.70106	-448.563
1.70118	-450.436
1.7013	-453.309
1.70142	-414.182
1.70155	-450.055
1.70167	-413.928
1.70179	-429.801
1.70191	-450.674
1.70203	-449.547
1.70215	-421.42
1.70227	-445.293
1.70239	-452.166
1.70251	-401.039
1.70263	-401.912
1.70275	-420.785
1.70287	-393.658
1.70299	-400.531
1.70311	-375.405
1.70324	-396.278
1.70336	-387.151
1.70348	-390.024
1.7036	-417.897
1.70372	-416.77
1.70384	-403.643
1.70396	-375.516
1.70408	-417.389
1.7042	-387.262
1.70432	-381.135
1.70444	-382.008
1.70457	-378.881
1.70469	-400.754
1.70481	-408.627
1.70493	-393.5
1.70505	-424.373
1.70517	-383.246
1.70529	-394.119
1.70541	-411.992
1.70553	-367.865
1.70566	-378.738
1.70578	-351.611
1.7059	-369.484
1.70602	-367.357
1.70614	-352.23
1.70626	-421.103
1.70638	-385.976
1.70651	-346.849
1.70663	-376.722
1.70675	-374.595
1.70687	-348.468
1.70699	-364.341
1.70711	-405.215
1.70723	-366.088
1.70736	-363.961
1.70748	-359.834
1.7076	-406.707
1.70772	-356.58
1.70784	-367.453
1.70796	-312.326
1.70808	-363.199
1.70821	-345.072
1.70833	-382.945
1.70845	-351.818
1.70857	-344.691
1.70869	-339.564
1.70881	-371.437
1.70894	-361.31
1.70906	-362.183
1.70918	-364.056
1.7093	-332.929
1.70942	-367.802
1.70954	-375.675
1.70967	-352.548
1.70979	-323.421
1.70991	-314.294
1.71003	-351.167
1.71015	-328.04
1.71028	-357.913
1.7104	-353.786
1.71052	-342.659
1.71064	-335.532
1.71076	-311.405
1.71089	-303.278
1.71101	-348.151
1.71113	-342.024
1.71125	-362.897
1.71137	-373.771
1.7115	-347.644
1.71162	-318.517
1.71174	-332.39
1.71186	-309.263
1.71199	-302.136
1.712	-303.334
1.71212	-318.511
1.71224	-322.12
1.71237	-300.693
1.71249	-325.268
1.71261	-312.045
1.71273	-337.985
1.71285	-331.199
1.71297	-338.178
1.7131	-348.46
1.71322	-367.539
1.71334	-317.982
1.71346	-379.863
1.71358	-412.745
1.71371	-394.626
1.71383	-432.507
1.71395	-381.389
1.71407	-415.27
1.71419	-395.151
1.71431	-446.032
1.71444	-440.914
1.71456	-449.795
1.71468	-480.676
1.7148	-503.558
1.71492	-475.439
1.71505	-444.32
1.71517	-481.202
1.71529	-495.083
1.71541	-488.964
1.71553	-510.846
1.71566	-523.727
1.71578	-541.608
1.7159	-534.49
1.71602	-511.371
1.71614	-583.252
1.71627	-564.134
1.71639	-570.015
1.71651	-613.896
1.71663	-565.777
1.71676	-576.659
1.71688	-580.54
1.717	-633.421
1.71712	-621.303
1.71724	-662.184
1.71737	-650.065
1.71749	-647.947
1.71761	-617.828
1.71773	-621.709
1.71786	-645.591
1.71798	-658.472
1.7181	-678.353
1.71822	-683.235
1.71835	-686.116
1.71847	-676.997
1.71859	-686.879
1.71871	-667.76
1.71884	-685.641
1.71896	-693.522
1.71908	-737.404
1.7192	-701.285
1.71933	-729.166
1.71945	-691.048
1.71957	-758.929
1.7197	-753.81
1.71982	-751.692
1.71994	-755.573
1.72006	-758.454
1.72019	-720.336
1.72031	-706.217
1.72043	-759.098
1.72055	-736.979
1.72068	-776.861
1.7208	-776.742
1.72092	-722.623
1.72105	-750.505
1.72117	-801.386
1.72129	-800.267
1.72141	-792.149
1.72154	-787.03
1.72166	-819.911
1.72178	-817.793
1.72191	-803.674
1.72203	-792.555
1.72215	-833.437
1.72228	-846.318
1.7224	-779.199
1.72252	-835.081
1.72265	-823.962
1.72277	-867.843
1.72289	-843.724
1.72302	-839.606
1.72314	-808.487
1.72326	-853.368
1.72338	-860.25
1.72351	-879.131
1.72363	-886.012
1.72375	-847.894
1.72388	-859.775
1.724	-881.656
1.72413	-871.538
1.72425	-839.419
1.72437	-854.3
1.7245	-855.182
1.72462	-890.063
1.72474	-834.944
1.72487	-869.826
1.72499	-851.707
1.72511	-875.588
1.72524	-894.469
1.72536	-889.351
1.72548	-880.232
1.72561	-889.113
1.72573	-860.995
1.72585	-905.876
1.72598	-899.757
1.7261	-907.639
1.72623	-847.52
1.72635	-924.401
1.72647	-926.283
1.7266	-935.164
1.72672	-897.045
1.72684	-910.927
1.72697	-897.808
1.72709	-925.689
1.72722	-925.57
1.72734	-879.452
1.72746	-926.333
1.72759	-879.214
1.72771	-943.096
1.72784	-944.977
1.72796	-907.858
1.72808	-944.74
1.72821	-961.621
1.72833	-941.502
1.72846	-923.384
1.72858	-927.265
1.7287	-962.146
1.72883	-964.028
1.72895	-962.909
1.72908	-956.79
1.7292	-956.672
1.72932	-937.553
1.72945	-975.434
1.72957	-953.315
1.7297	-925.197
1.72982	-948.078
1.72995	-924.959
1.73007	-928.841
1.73019	-952.722
1.73032	-933.603
1.73044	-969.485
1.73057	-978.366
1.73069	-953.247
1.73082	-950.129
1.73094	-948.01
1.73107	-987.891
1.73119	-995.773
1.73131	-953.654
1.73144	-921.535
1.73156	-976.417
1.73169	-950.298
1.73181	-938.179
1.73194	-981.06
1.73206	-960.942
1.73219	-983.823
1.73231	-958.704
1.73244	-942.586
1.73256	-934.467
1.73269	-963.348
1.73281	-979.23
1.73293	-975.111
1.73306	-940.992
1.73318	-967.874
1.73331	-991.755
1.73343	-1005.64
1.73356	-958.518
1.73368	-944.399
1.73381	-975.28
1.73393	-968.161
1.73406	-980.043
1.73418	-949.924
1.73431	-946.805
1.73443	-1000.69
1.73456	-999.568
1.73468	-942.449
1.73481	-988.331
1.73493	-958.212
1.73506	-944.093
1.73518	-985.975
1.73531	-974.856
1.73543	-941.737
1.73556	-970.619
1.73568	-951.5
1.73581	-996.381
1.73593	-1002.26
1.73606	-961.144
1.73619	-980.025
1.73631	-981.906
1.73644	-984.788
1.73656	-995.669
1.73669	-990.55
1.73681	-940.432
1.73694	-977.313
1.73706	-981.194
1.73719	-999.076
1.73731	-936.957
1.73744	-1005.84
1.73756	-985.72
1.73769	-968.601
1.73782	-959.482
1.73794	-982.364
1.73807	-972.245
1.73819	-946.126
1.73832	-960.008
1.73844	-948.889
1.73857	-954.77
1.73869	-929.651
1.73882	-976.533
1.73895	-970.414
1.73907	-987.295
1.7392	-971.177
1.73932	-964.058
1.73945	-1002.94
1.73957	-950.821
1.7397	-992.702
1.73983	-953.583
1.73995	-972.465
1.74008	-951.346
1.7402	-956.227
1.74033	-981.109
1.74046	-984.99
1.74058	-962.871
1.74071	-984.752
1.74083	-926.634
1.74096	-945.515
1.74109	-922.396
1.74121	-947.278
1.74134	-974.159
1.74146	-988.04
1.74159	-1011.92
1.74172	-969.803
1.74184	-938.684
1.74197	-972.566
1.74209	-949.447
1.74222	-964.328
1.74235	-947.209
1.74247	-971.091
1.7426	-958.972
1.74273	-955.853
1.74285	-962.735
1.74298	-978.616
1.7431	-962.497
1.74323	-957.379
1.74336	-961.26
1.74348	-949.141
1.74361	-959.023
1.74374	-990.904
1.74386	-1010.79
1.74399	-968.667
1.74412	-979.548
1.74424	-969.429
1.74437	-972.311
1.7445	-972.192
1.74462	-992.073
1.74475	-986.955
1.74488	-956.836
1.745	-961.717
1.74513	-940.598
1.74526	-969.48
1.74538	-1001.36
1.74551	-995.242
1.74564	-936.124
1.74576	-982.005
1.74589	-959.886
1.74602	-978.768
1.74614	-948.649
1.74627	-941.53
1.7464	-924.412
1.74652	-937.293
1.74665	-936.174
1.74678	-981.056
1.7469	-968.937
1.74703	-958.818
1.74716	-959.7
1.74728	-944.581
1.74741	-954.462
1.74754	-930.344
1.74767	-963.225
1.74779	-905.106
1.74792	-907.987
1.74805	-943.869
1.74817	-958.75
1.7483	-933.631
1.74843	-929.513
1.74856	-930.394
1.74868	-942.275
1.74881	-964.157
1.74894	-912.038
1.74906	-929.919
1.74919	-991.8
1.74932	-957.682
1.74945	-939.563
1.74957	-959.444
1.7497	-909.326
1.74983	-972.207
1.74996	-957.088
1.75008	-956.97
1.75021	-902.851
1.75034	-962.732
1.75047	-934.614
1.75059	-935.495
1.75072	-928.376
1.75085	-935.258
1.75098	-924.139
1.7511	-913.02
1.75123	-922.902
1.75136	-939.783
1.75149	-912.664
1.75161	-898.545
1.75174	-911.427
1.75187	-920.308
1.752	-948.189
1.75213	-933.071
1.75225	-921.952
1.75238	-907.833
1.75251	-941.715
1.75264	-934.596
1.75276	-934.477
1.75289	-889.359
1.75302	-945.24
1.75315	-966.121
1.75328	-950.003
1.7534	-954.884
1.75353	-920.765
1.75366	-968.647
1.75379	-928.528
1.75392	-953.409
1.75404	-909.291
1.75417	-914.172
1.7543	-935.053
1.75443	-899.934
1.75456	-934.816
1.75468	-894.697
1.75481	-923.578
1.75494	-925.46
1.75507	-919.341
1.7552	-930.222
1.75533	-900.104
1.75545	-919.985
1.75558	-911.866
1.75571	-924.748
1.75584	-926.629
1.75597	-906.51
1.7561	-928.392
1.75622	-908.273
1.75635	-877.154
1.75648	-891.035
1.75661	-920.917
1.75674	-918.798
1.75687	-916.679
1.757	-933.561
1.75712	-913.442
1.75725	-926.323
1.75738	-889.205
1.75751	-915.086
1.75764	-911.967
1.75777	-864.849
1.7579	-911.73
1.75802	-929.611
1.75815	-870.492
1.75828	-936.374
1.75841	-869.255
1.75854	-925.136
1.75867	-884.018
1.7588	-881.899
1.75893	-935.78
1.75905	-928.662
1.75918	-913.543
1.75931	-921.424
1.75944	-898.306
1.75957	-897.187
1.7597	-894.068
1.75983	-910.95
1.75996	-956.831
1.76009	-911.712
1.76021	-882.594
1.76034	-944.475
1.76047	-861.356
1.7606	-904.238
1.76073	-901.119
1.76086	-875
1.76099	-903.881
1.76112	-872.763
1.76125	-884.644
1.76138	-908.525
1.76151	-888.407
1.76164	-841.288
1.76176	-840.169
1.76189	-904.051
1.76202	-895.932
1.76215	-909.813
1.76228	-911.695
1.76241	-876.576
1.76254	-867.457
1.76267	-920.339
1.7628	-868.22
1.76293	-859.101
1.76306	-902.983
1.76319	-871.864
1.76332	-882.745
1.76345	-889.626
1.76358	-886.508
1.76371	-867.389
1.76384	-863.27
1.76397	-833.152
1.76409	-856.033
1.76422	-859.914
1.76435	-880.796
1.76448	-860.677
1.76461	-851.558
1.76474	-910.44
1.76487	-866.321
1.765	-866.202
1.76513	-855.083
1.76526	-864.965
1.76539	-886.846
1.76552	-858.727
1.76565	-897.609
1.76578	-858.49
1.76591	-840.371
1.76604	-843.253
1.76617	-873.134
1.7663	-852.015
1.76643	-846.897
1.76656	-860.778
1.76669	-869.659
1.76682	-874.541
1.76695	-823.422
1.76708	-843.303
1.76721	-859.185
1.76734	-890.066
1.76747	-878.947
1.7676	-864.828
1.76773	-832.71
1.76786	-801.591
1.76799	-856.472
1.76812	-836.354
1.76825	-880.235
1.76838	-852.116
1.76851	-861.998
1.76865	-851.879
1.76878	-836.76
1.76891	-871.642
1.76904	-888.523
1.76917	-863.404
1.7693	-877.286
1.76943	-851.167
1.76956	-877.048
1.76969	-841.93
1.76982	-844.811
1.76995	-836.692
1.77008	-824.573
1.77021	-867.455
1.77034	-837.336
1.77047	-878.217
1.7706	-874.099
1.77073	-857.98
1.77086	-859.861
1.771	-832.743
1.77113	-843.624
1.77126	-853.505
1.77139	-841.387
1.77152	-858.268
1.77165	-818.149
1.77178	-844.031
1.77191	-856.912
1.77204	-870.793
1.77217	-846.674
1.7723	-841.556
1.77243	-817.437
1.77257	-825.318
1.7727	-843.2
1.77283	-844.081
1.77296	-867.962
1.77309	-782.844
1.77322	-864.725
1.77335	-829.606
1.77348	-816.488
1.77361	-827.369
1.77375	-822.25
1.77388	-840.132
1.77401	-797.013
1.77414	-832.894
1.77427	-812.776
1.7744	-808.657
1.77453	-840.538
1.77466	-850.419
1.7748	-843.301
1.77493	-847.182
1.77506	-827.063
1.77519	-818.945
1.77532	-808.826
1.77545	-833.707
1.77558	-820.589
1.77571	-831.47
1.77585	-783.351
1.77598	-839.233
1.77611	-818.114
1.77624	-811.995
1.77637	-816.877
1.7765	-813.758
1.77664	-836.639
1.77677	-809.521
1.7769	-800.402
1.77703	-810.283
1.77716	-814.164
1.77729	-797.046
1.77743	-806.927
1.77756	-846.808
1.77769	-811.69
1.77782	-819.571
1.77795	-827.452
1.77809	-826.334
1.77822	-805.215
1.77835	-809.096
1.77848	-852.978
1.77861	-834.859
1.77874	-786.74
1.77888	-827.622
1.77901	-839.503
1.77914	-747.384
1.77927	-778.265
1.7794	-753.147
1.77954	-791.028
1.77967	-809.909
1.7798	-823.791
1.77993	-794.672
1.78007	-779.553
1.7802	-813.435
1.78033	-813.316
1.78046	-799.197
1.78059	-810.079
1.78073	-817.96
1.78086	-786.841
1.78099	-784.723
1.78112	-793.604
1.78126	-813.485
1.78139	-793.366
1.78152	-811.248
1.78165	-775.129
1.78179	-790.01
1.78192	-798.892
1.78205	-775.773
1.78218	-802.654
1.78232	-795.536
1.78245	-778.417
1.78258	-792.298
1.78271	-761.18
1.78285	-791.061
1.78298	-783.942
1.78311	-790.824
1.78324	-811.705
1.78338	-809.586
1.78351	-783.468
1.78364	-783.349
1.78377	-755.23
1.78391	-782.111
1.78404	-755.993
1.78417	-758.874
1.78431	-798.755
1.78444	-766.637
1.78457	-765.518
1.7847	-751.399
1.78484	-791.281
1.78497	-751.162
1.7851	-794.043
1.78524	-741.925
1.78537	-760.806
1.7855	-780.687
1.78564	-781.569
1.78577	-787.45
1.7859	-778.331
1.78603	-751.213
1.78617	-779.094
1.7863	-787.975
1.78643	-780.857
1.78657	-775.738
1.7867	-771.619
1.78683	-775.5
1.78697	-770.382
1.7871	-752.263
1.78723	-753.144
1.78737	-758.026
1.7875	-778.907
1.78763	-806.788
1.78777	-786.67
1.7879	-767.551
1.78803	-769.432
1.78817	-788.314
1.7883	-768.195
1.78843	-714.076
1.78857	-749.957
1.7887	-740.839
1.78884	-739.72
1.78897	-741.601
1.7891	-770.483
1.78924	-780.364
1.78937	-751.245
1.7895	-767.127
1.78964	-789.008
1.78977	-770.889
1.7899	-787.771
1.79004	-747.652
1.79017	-754.533
1.79031	-731.415
1.79044	-732.296
1.79057	-730.177
1.79071	-738.058
1.79084	-770.94
1.79098	-708.821
1.79111	-726.702
1.79124	-732.584
1.79138	-754.465
1.79151	-774.346
1.79164	-756.228
1.79178	-792.109
1.79191	-743.99
1.79205	-760.872
1.79218	-764.753
1.79232	-751.634
1.79245	-747.516
1.79258	-766.397
1.79272	-785.278
1.79285	-719.159
1.79299	-750.041
1.79312	-746.922
1.79325	-778.804
1.79339	-774.685
1.79352	-726.566
1.79366	-739.447
1.79379	-713.329
1.79393	-759.21
1.79406	-733.091
1.7942	-750.973
1.79433	-733.854
1.79446	-732.735
1.7946	-705.617
1.79473	-732.498
1.79487	-749.379
1.795	-731.261
1.79514	-750.142
1.79527	-764.023
1.79541	-760.905
1.79554	-704.786
1.79568	-778.667
1.79581	-726.548
1.79594	-734.43
1.79608	-707.311
1.79621	-748.192
1.79635	-732.074
1.79648	-713.955
1.79662	-738.836
1.79675	-737.718
1.79689	-743.599
1.79702	-723.48
1.79716	-713.362
1.79729	-729.243
1.79743	-728.124
1.79756	-729.006
1.7977	-745.887
1.79783	-751.768
1.79797	-714.649
1.7981	-700.531
1.79824	-739.412
1.79837	-729.293
1.79851	-713.175
1.79864	-711.056
1.79878	-708.937
1.79891	-710.819
1.79905	-724.7
1.79918	-702.581
1.79932	-744.463
1.79945	-722.344
1.79959	-701.225
1.79972	-736.107
1.79986	-720.988
1.8	-725.869
1.80013	-716.751
1.80027	-712.632
1.8004	-707.513
1.80054	-714.394
1.80067	-718.276
1.80081	-710.157
1.80094	-739.038
1.80108	-746.92
1.80121	-704.801
1.80135	-701.682
1.80149	-716.564
1.80162	-740.445
1.80176	-695.326
1.80189	-712.208
1.80203	-692.089
1.80216	-709.97
1.8023	-709.852
1.80244	-691.733
1.80257	-724.614
1.80271	-731.495
1.80284	-677.377
1.80298	-750.258
1.80311	-697.139
1.80325	-729.021
1.80339	-711.902
1.80352	-697.783
1.80366	-709.665
1.80379	-714.546
1.80393	-702.427
1.80407	-737.309
1.8042	-724.19
1.80434	-705.071
1.80447	-687.953
1.80461	-764.834
1.80475	-703.715
1.80488	-717.597
1.80502	-699.478
1.80515	-726.359
1.80529	-727.24
1.80543	-696.122
1.80556	-724.003
1.8057	-687.884
1.80584	-687.766
1.80597	-714.647
1.80611	-703.528
1.80625	-723.41
1.80638	-731.291
1.80652	-718.172
1.80665	-675.054
1.80679	-662.935
1.80693	-689.816
1.80706	-700.698
1.8072	-732.579
1.80734	-699.46
1.80747	-695.341
1.80761	-692.223
1.80775	-685.104
1.80788	-676.985
1.80802	-703.867
1.80816	-715.748
1.80829	-708.629
1.80843	-694.511
1.80857	-690.392
1.8087	-700.273
1.80884	-698.155
1.80898	-699.036
1.80911	-716.917
1.80925	-720.799
1.80939	-688.68
1.80952	-706.561
1.80966	-684.443
1.8098	-702.324
1.80993	-658.205
1.81007	-714.086
1.81021	-670.968
1.81035	-681.849
1.81048	-708.73
1.81062	-712.612
1.81076	-679.493
1.81089	-723.374
1.81103	-676.256
1.81117	-693.137
1.81131	-692.018
1.81144	-674.9
1.81158	-689.781
1.81172	-665.662
1.81185	-699.544
1.81199	-713.425
1.81213	-685.306
1.81227	-695.188
1.8124	-685.069
1.81254	-666.95
1.81268	-679.831
1.81282	-686.713
1.81295	-670.594
1.81309	-696.475
1.81323	-696.357
1.81337	-684.238
1.8135	-690.119
1.81364	-711.001
1.81378	-628.882
1.81392	-675.763
1.81405	-686.645
1.81419	-667.526
1.81433	-668.407
1.81447	-668.289
1.8146	-644.17
1.81474	-655.051
1.81488	-692.932
1.81502	-660.814
1.81516	-656.695
1.81529	-687.576
1.81543	-651.458
1.81557	-694.339
1.81571	-640.22
1.81584	-666.102
1.81598	-681.983
1.81612	-685.864
1.81626	-673.746
1.8164	-667.627
1.81653	-684.508
1.81667	-667.39
1.81681	-673.271
1.81695	-654.152
1.81709	-643.034
1.81722	-667.915
1.81736	-686.796
1.8175	-658.677
1.81764	-635.559
1.81778	-655.44
1.81792	-664.321
1.81805	-643.203
1.81819	-667.084
1.81833	-666.965
1.81847	-641.847
1.81861	-643.728
1.81875	-648.609
1.81888	-626.491
1.81902	-651.372
1.81916	-647.253
1.8193	-657.135
1.81944	-668.016
1.81958	-637.897
1.81971	-664.778
1.81985	-658.66
1.81999	-648.541
1.82013	-661.422
1.82027	-671.304
1.82041	-660.185
1.82055	-669.066
1.82068	-654.948
1.82082	-656.829
1.82096	-650.71
1.8211	-663.592
1.82124	-620.473
1.82138	-651.354
1.82152	-634.236
1.82166	-642.117
1.8218	-661.998
1.82193	-634.88
1.82207	-635.761
1.82221	-668.642
1.82235	-673.523
1.82249	-628.405
1.82263	-675.286
1.82277	-647.167
1.82291	-646.049
1.82305	-654.93
1.82319	-648.811
1.82332	-662.693
1.82346	-632.574
1.8236	-631.455
1.82374	-639.337
1.82388	-629.218
1.82402	-667.099
1.82416	-638.981
1.8243	-631.862
1.82444	-639.743
1.82458	-655.625
1.82472	-614.506
1.82486	-629.387
1.825	-623.268
1.82513	-630.15
1.82527	-610.031
1.82541	-656.912
1.82555	-628.794
1.82569	-636.675
1.82583	-631.556
1.82597	-617.438
1.82611	-645.319
1.82625	-640.2
1.82639	-636.082
1.82653	-631.963
1.82667	-633.844
1.82681	-613.725
1.82695	-634.607
1.82709	-647.488
1.82723	-618.369
1.82737	-655.251
1.82751	-629.132
1.82765	-662.013
1.82779	-665.895
1.82793	-602.776
1.82807	-637.657
1.82821	-628.539
1.82835	-645.42
1.82849	-629.301
1.82863	-624.183
1.82877	-609.064
1.82891	-613.945
1.82905	-618.827
1.82919	-635.708
1.82933	-620.589
1.82947	-619.471
1.82961	-629.352
1.82975	-629.233
1.82989	-651.114
1.83003	-616.996
1.83017	-610.877
1.83031	-625.758
1.83045	-611.64
1.83059	-612.521
1.83073	-602.402
1.83087	-632.284
1.83101	-617.165
1.83115	-595.046
1.83129	-616.928
1.83143	-622.809
1.83157	-630.69
1.83171	-601.572
1.83185	-618.453
1.83199	-627.334
1.83213	-605.215
1.83227	-607.097
1.83241	-607.978
1.83256	-600.859
1.8327	-600.741
1.83284	-613.622
1.83298	-633.503
1.83312	-616.385
1.83326	-608.266
1.8334	-599.147
1.83354	-653.029
1.83368	-592.91
1.83382	-578.791
1.83396	-592.672
1.8341	-597.554
1.83424	-615.435
1.83439	-620.316
1.83453	-611.198
1.83467	-612.079
1.83481	-631.96
1.83495	-618.842
1.83509	-584.723
1.83523	-587.604
1.83537	-609.486
1.83551	-601.367
1.83565	-596.248
1.8358	-564.13
1.83594	-611.011
1.83608	-620.892
1.83622	-587.773
1.83636	-579.655
1.8365	-585.536
1.83664	-602.418
1.83678	-581.299
1.83693	-604.18
1.83707	-607.061
1.83721	-597.943
1.83735	-610.824
1.83749	-564.705
1.83763	-602.587
1.83777	-599.468
1.83792	-586.349
1.83806	-572.231
1.8382	-611.112
1.83834	-586.993
1.83848	-611.875
1.83862	-601.756
1.83876	-605.637
1.83891	-625.519
1.83905	-592.4
1.83919	-605.281
1.83933	-590.163
1.83947	-583.044
1.83961	-578.925
1.83976	-588.806
1.8399	-570.688
1.84004	-570.569
1.84018	-616.45
1.84032	-577.332
1.84047	-584.213
1.84061	-568.094
1.84075	-566.976
1.84089	-573.857
1.84103	-569.738
1.84118	-591.62
1.84132	-591.501
1.84146	-591.382
1.8416	-566.263
1.84174	-583.145
1.84189	-593.026
1.84203	-568.907
1.84217	-566.789
1.84231	-596.67
1.84245	-572.551
1.8426	-578.433
1.84274	-573.314
1.84285	-574.011
1.84299	-556.117
1.84313	-559.542
1.84327	-573.997
1.84342	-564.542
1.84356	-573.662
1.8437	-574.214
1.84384	-594.024
1.84398	-587.427
1.84412	-605.841
1.84427	-619.679
1.84441	-649.595
1.84455	-656.511
1.84469	-651.427
1.84483	-670.343
1.84497	-665.259
1.84512	-666.174
1.84526	-682.09
1.8454	-706.006
1.84554	-714.922
1.84568	-725.838
1.84583	-710.753
1.84597	-738.669
1.84611	-757.585
1.84625	-754.501
1.8464	-780.417
1.84654	-763.333
1.84668	-770.248
1.84682	-792.164
1.84696	-799.08
1.84711	-809.996
1.84725	-798.912
1.84739	-820.827
1.84753	-833.743
1.84768	-827.659
1.84782	-854.575
1.84796	-836.491
1.8481	-865.406
1.84824	-876.322
1.84839	-868.238
1.84853	-865.154
1.84867	-875.07
1.84881	-906.986
1.84896	-926.901
1.8491	-895.817
1.84924	-901.733
1.84939	-910.649
1.84953	-902.565
1.84967	-933.48
1.84981	-935.396
1.84996	-965.312
1.8501	-945.228
1.85024	-946.144
1.85038	-965.06
1.85053	-986.975
1.85067	-976.891
1.85081	-988.807
1.85096	-998.723
1.8511	-993.639
1.85124	-1007.55
1.85138	-1018.47
1.85153	-1008.39
1.85167	-1007.3
1.85181	-1007.22
1.85196	-1025.13
1.8521	-1027.05
1.85224	-1016.97
1.85239	-1015.88
1.85253	-1020.8
1.85267	-1047.71
1.85282	-1060.63
1.85296	-1068.54
1.8531	-1055.46
1.85325	-1071.38
1.85339	-1087.29
1.85353	-1077.21
1.85368	-1050.12
1.85382	-1081.04
1.85396	-1075.95
1.85411	-1090.87
1.85425	-1082.79
1.85439	-1108.7
1.85454	-1103.62
1.85468	-1117.53
1.85482	-1111.45
1.85497	-1118.37
1.85511	-1123.28
1.85525	-1114.2
1.8554	-1121.11
1.85554	-1149.03
1.85568	-1118.94
1.85583	-1147.86
1.85597	-1150.78
1.85612	-1166.69
1.85626	-1143.61
1.8564	-1160.52
1.85655	-1147.44
1.85669	-1145.36
1.85683	-1162.27
1.85698	-1159.19
1.85712	-1176.1
1.85727	-1163.02
1.85741	-1179.93
1.85755	-1158.85
1.8577	-1184.77
1.85784	-1173.68
1.85799	-1185.6
1.85813	-1179.51
1.85827	-1212.43
1.85842	-1201.35
1.85856	-1195.26
1.85871	-1200.18
1.85885	-1226.09
1.859	-1199.01
1.85914	-1217.92
1.85928	-1211.84
1.85943	-1221.76
1.85957	-1213.67
1.85972	-1213.59
1.85986	-1234.5
1.86001	-1222.42
1.86015	-1221.34
1.86029	-1236.25
1.86044	-1220.17
1.86058	-1240.08
1.86073	-1232
1.86087	-1235.91
1.86102	-1232.83
1.86116	-1235.75
1.86131	-1239.66
1.86145	-1243.58
1.8616	-1242.49
1.86174	-1242.41
1.86188	-1265.32
1.86203	-1237.24
1.86217	-1264.16
1.86232	-1253.07
1.86246	-1271.99
1.86261	-1247.9
1.86275	-1242.82
1.8629	-1241.74
1.86304	-1267.65
1.86319	-1267.57
1.86333	-1268.48
1.86348	-1274.4
1.86362	-1269.31
1.86377	-1274.23
1.86391	-1270.15
1.86406	-1268.06
1.8642	-1293.98
1.86435	-1274.89
1.86449	-1260.81
1.86464	-1276.73
1.86478	-1285.64
1.86493	-1271.56
1.86507	-1262.47
1.86522	-1292.39
1.86536	-1306.3
1.86551	-1285.22
1.86566	-1296.14
1.8658	-1295.05
1.86595	-1304.97
1.86609	-1311.88
1.86624	-1298.8
1.86638	-1297.72
1.86653	-1314.63
1.86667	-1308.55
1.86682	-1307.46
1.86696	-1300.38
1.86711	-1316.29
1.86726	-1317.21
1.8674	-1320.13
1.86755	-1332.04
1.86769	-1337.96
1.86784	-1290.87
1.86798	-1319.79
1.86813	-1338.71
1.86828	-1308.62
1.86842	-1308.54
1.86857	-1314.45
1.86871	-1313.37
1.86886	-1318.28
1.869	-1323.2
1.86915	-1336.12
1.8693	-1336.03
1.86944	-1299.95
1.86959	-1338.86
1.86973	-1323.78
1.86988	-1334.69
1.87003	-1316.61
1.87017	-1338.53
1.87032	-1322.44
1.87046	-1332.36
1.87061	-1321.27
1.87076	-1330.19
1.8709	-1315.11
1.87105	-1332.02
1.8712	-1322.94
1.87134	-1325.85
1.87149	-1351.77
1.87163	-1346.68
1.87178	-1315.6
1.87193	-1335.52
1.87207	-1336.43
1.87222	-1339.35
1.87237	-1343.26
1.87251	-1322.18
1.87266	-1335.1
1.87281	-1333.01
1.87295	-1331.93
1.8731	-1344.84
1.87325	-1342.76
1.87339	-1341.67
1.87354	-1346.59
1.87369	-1327.51
1.87383	-1343.42
1.87398	-1357.34
1.87413	-1346.25
1.87427	-1349.17
1.87442	-1345.09
1.87457	-1355
1.87471	-1351.92
1.87486	-1345.83
1.87501	-1357.75
1.87515	-1349.66
1.8753	-1374.58
1.87545	-1342.5
1.87559	-1322.41
1.87574	-1343.33
1.87589	-1315.24
1.87604	-1331.16
1.87618	-1373.08
1.87633	-1356.99
1.87648	-1332.91
1.87662	-1333.82
1.87677	-1341.74
1.87692	-1347.65
1.87707	-1356.57
1.87721	-1375.49
1.87736	-1338.4
1.87751	-1341.32
1.87766	-1350.23
1.8778	-1336.15
1.87795	-1349.06
1.8781	-1339.98
1.87824	-1356.9
1.87839	-1353.81
1.87854	-1360.73
1.87869	-1349.64
1.87883	-1343.56
1.87898	-1327.48
1.87913	-1339.39
1.87928	-1362.31
1.87943	-1348.22
1.87957	-1329.14
1.87972	-1335.05
1.87987	-1335.97
1.88002	-1343.89
1.88016	-1346.8
1.88031	-1356.72
1.88046	-1382.63
1.88061	-1360.55
1.88076	-1358.47
1.8809	-1353.38
1.88105	-1360.3
1.8812	-1358.21
1.88135	-1362.13
1.88149	-1365.04
1.88164	-1359.96
1.88179	-1358.88
1.88194	-1338.79
1.88209	-1358.71
1.88224	-1375.62
1.88238	-1362.54
1.88253	-1330.46
1.88268	-1331.37
1.88283	-1365.29
1.88298	-1369.2
1.88312	-1355.12
1.88327	-1359.03
1.88342	-1346.95
1.88357	-1363.87
1.88372	-1356.78
1.88387	-1347.7
1.88401	-1344.61
1.88416	-1350.53
1.88431	-1349.45
1.88446	-1336.36
1.88461	-1342.28
1.88476	-1350.19
1.88491	-1342.11
1.88505	-1346.02
1.8852	-1367.94
1.88535	-1349.86
1.8855	-1346.77
1.88565	-1348.69
1.8858	-1347.6
1.88595	-1355.52
1.88609	-1351.43
1.88624	-1363.35
1.88639	-1368.27
1.88654	-1349.18
1.88669	-1336.1
1.88684	-1350.01
1.88699	-1347.93
1.88714	-1344.85
1.88729	-1338.76
1.88743	-1345.68
1.88758	-1378.59
1.88773	-1356.51
1.88788	-1343.42
1.88803	-1358.34
1.88818	-1358.26
1.88833	-1347.17
1.88848	-1343.09
1.88863	-1338
1.88878	-1348.92
1.88893	-1338.84
1.88908	-1332.75
1.88922	-1350.67
1.88937	-1351.58
1.88952	-1357.5
1.88967	-1336.41
1.88982	-1353.33
1.88997	-1380.25
1.89012	-1330.16
1.89027	-1339.08
1.89042	-1342.99
1.89057	-1348.91
1.89072	-1341.83
1.89087	-1339.74
1.89102	-1353.66
1.89117	-1339.57
1.89132	-1338.49
1.89147	-1363.4
1.89162	-1353.32
1.89177	-1340.24
1.89192	-1332.15
1.89207	-1361.07
1.89222	-1367.98
1.89236	-1348.9
1.89251	-1336.81
1.89266	-1357.73
1.89281	-1345.65
1.89296	-1358.56
1.89311	-1323.48
1.89326	-1342.39
1.89341	-1318.31
1.89356	-1322.23
1.89371	-1344.14
1.89386	-1326.06
1.89401	-1326.97
1.89416	-1334.89
1.89431	-1351.8
1.89447	-1324.72
1.89462	-1329.64
1.89477	-1327.55
1.89492	-1344.47
1.89507	-1326.38
1.89522	-1346.3
1.89537	-1324.22
1.89552	-1329.13
1.89567	-1334.05
1.89582	-1325.96
1.89597	-1322.88
1.89612	-1329.79
1.89627	-1330.71
1.89642	-1320.63
1.89657	-1326.54
1.89672	-1339.46
1.89687	-1327.37
1.89702	-1325.29
1.89717	-1328.21
1.89732	-1309.12
1.89747	-1338.04
1.89762	-1322.95
1.89778	-1324.87
1.89793	-1311.78
1.89808	-1326.7
1.89823	-1336.62
1.89838	-1328.53
1.89853	-1343.45
1.89868	-1324.36
1.89883	-1317.28
1.89898	-1332.2
1.89913	-1307.11
1.89928	-1317.03
1.89943	-1323.94
1.89959	-1336.86
1.89974	-1343.77
1.89989	-1320.69
1.90004	-1310.61
1.90019	-1309.52
1.90034	-1324.44
1.90049	-1344.35
1.90064	-1311.27
1.9008	-1340.18
1.90095	-1311.1
1.9011	-1308.02
1.90125	-1321.93
1.9014	-1310.85
1.90155	-1322.76
1.9017	-1289.68
1.90185	-1330.6
1.90201	-1314.51
1.90216	-1329.43
1.90231	-1324.34
1.90246	-1330.26
1.90261	-1316.17
1.90276	-1304.09
1.90292	-1303.01
1.90307	-1312.92
1.90322	-1299.84
1.90337	-1316.75
1.90352	-1311.67
1.90367	-1302.59
1.90383	-1304.5
1.90398	-1290.42
1.90413	-1302.33
1.90428	-1300.25
1.90443	-1300.16
1.90458	-1288.08
1.90474	-1308
1.90489	-1294.91
1.90504	-1295.83
1.90519	-1304.74
1.90534	-1318.66
1.9055	-1298.58
1.90565	-1297.49
1.9058	-1283.41
1.90595	-1303.32
1.9061	-1293.24
1.90626	-1299.15
1.90641	-1302.07
1.90656	-1294.99
1.90671	-1297.9
1.90687	-1292.82
1.90702	-1292.73
1.90717	-1294.65
1.90732	-1296.56
1.90747	-1287.48
1.90763	-1299.4
1.90778	-1290.31
1.90793	-1283.23
1.90808	-1280.14
1.90824	-1282.06
1.90839	-1288.98
1.90854	-1298.89
1.9087	-1290.81
1.90885	-1282.72
1.909	-1290.64
1.90915	-1271.55
1.90931	-1282.47
1.90946	-1266.39
1.90961	-1290.3
1.90976	-1298.22
1.90992	-1279.13
1.91007	-1271.05
1.91022	-1279.97
1.91038	-1289.88
1.91053	-1282.8
1.91068	-1281.71
1.91083	-1263.63
1.91099	-1287.54
1.91114	-1288.46
1.91129	-1280.38
1.91145	-1272.29
1.9116	-1259.21
1.91175	-1274.12
1.91191	-1274.04
1.91206	-1269.96
1.91221	-1268.87
1.91236	-1274.79
1.91252	-1285.7
1.91267	-1269.62
1.91282	-1282.53
1.91298	-1265.45
1.91313	-1269.37
1.91328	-1282.28
1.91344	-1265.2
1.91359	-1258.11
1.91374	-1240.03
1.9139	-1268.95
1.91405	-1259.86
1.91421	-1246.78
1.91436	-1277.69
1.91451	-1250.61
1.91467	-1278.52
1.91482	-1265.44
1.91497	-1264.36
1.91513	-1268.27
1.91528	-1269.19
1.91543	-1273.1
1.91559	-1249.02
1.91574	-1257.93
1.9159	-1250.85
1.91605	-1241.77
1.9162	-1241.68
1.91636	-1252.6
1.91651	-1253.51
1.91666	-1249.43
1.91682	-1244.35
1.91697	-1254.26
1.91713	-1258.18
1.91728	-1260.09
1.91744	-1256.01
1.91759	-1249.92
1.91774	-1268.84
1.9179	-1240.76
1.91805	-1255.67
1.91821	-1236.59
1.91836	-1246.5
1.91851	-1245.42
1.91867	-1250.34
1.91882	-1240.25
1.91898	-1252.17
1.91913	-1241.08
1.91929	-1245
1.91944	-1229.91
1.91959	-1248.83
1.91975	-1249.75
1.9199	-1240.66
1.92006	-1242.58
1.92021	-1263.49
1.92037	-1239.41
1.92052	-1244.33
1.92068	-1238.24
1.92083	-1236.16
1.92099	-1245.07
1.92114	-1218.99
1.9213	-1252.9
1.92145	-1232.82
1.9216	-1239.74
1.92176	-1249.65
1.92191	-1220.57
1.92207	-1225.48
1.92222	-1236.4
1.92238	-1226.32
1.92253	-1239.23
1.92269	-1234.15
1.92284	-1248.06
1.923	-1224.98
1.92315	-1235.89
1.92331	-1232.81
1.92346	-1213.73
1.92362	-1230.64
1.92377	-1236.56
1.92393	-1235.47
1.92409	-1218.39
1.92424	-1205.3
1.9244	-1228.22
1.92455	-1225.14
1.92471	-1205.05
1.92486	-1227.97
1.92502	-1236.88
1.92517	-1229.8
1.92533	-1199.72
1.92548	-1210.63
1.92564	-1220.55
1.92579	-1214.46
1.92595	-1212.38
1.92611	-1214.29
1.92626	-1226.21
1.92642	-1216.13
1.92657	-1196.04
1.92673	-1220.96
1.92688	-1202.87
1.92704	-1219.79
1.92719	-1224.71
1.92735	-1210.62
1.92751	-1200.54
1.92766	-1198.45
1.92782	-1219.37
1.92797	-1208.28
1.92813	-1216.2
1.92829	-1203.12
1.92844	-1196.03
1.9286	-1215.95
1.92875	-1176.86
1.92891	-1193.78
1.92907	-1200.7
1.92922	-1201.61
1.92938	-1197.53
1.92953	-1204.44
1.92969	-1200.36
1.92985	-1201.27
1.93	-1191.19
1.93016	-1202.11
1.93032	-1183.02
1.93047	-1192.94
1.93063	-1195.85
1.93078	-1186.77
1.93094	-1194.68
1.9311	-1177.6
1.93125	-1183.52
1.93141	-1187.43
1.93157	-1197.35
1.93172	-1180.26
1.93188	-1186.18
1.93204	-1182.1
1.93219	-1186.01
1.93235	-1186.93
1.93251	-1189.84
1.93266	-1171.76
1.93282	-1177.67
1.93298	-1179.59
1.93313	-1185.51
1.93329	-1178.42
1.93345	-1174.34
1.9336	-1182.25
1.93376	-1172.17
1.93392	-1163.09
1.93407	-1177
1.93423	-1170.92
1.93439	-1166.83
1.93454	-1178.75
1.9347	-1174.66
1.93486	-1175.58
1.93502	-1163.5
1.93517	-1169.41
1.93533	-1157.33
1.93549	-1173.24
1.93564	-1152.16
1.9358	-1158.08
1.93596	-1163.99
1.93612	-1160.91
1.93627	-1161.82
1.93643	-1150.74
1.93659	-1159.65
1.93675	-1152.57
1.9369	-1160.49
1.93706	-1167.4
1.93722	-1152.32
1.93738	-1138.23
1.93753	-1144.15
1.93769	-1151.07
1.93785	-1147.98
1.93801	-1150.9
1.93816	-1152.81
1.93832	-1155.73
1.93848	-1158.64
1.93864	-1143.56
1.93879	-1145.48
1.93895	-1156.39
1.93911	-1149.31
1.93927	-1147.22
1.93942	-1150.14
1.93958	-1138.05
1.93974	-1141.97
1.9399	-1136.89
1.94006	-1138.8
1.94021	-1142.72
1.94037	-1148.63
1.94053	-1141.55
1.94069	-1143.47
1.94085	-1131.38
1.941	-1131.3
1.94116	-1136.21
1.94132	-1136.13
1.94148	-1125.04
1.94164	-1131.96
1.9418	-1134.88
1.94195	-1128.79
1.94211	-1125.71
1.94227	-1145.62
1.94243	-1125.54
1.94259	-1122.46
1.94275	-1138.37
1.9429	-1126.29
1.94306	-1124.2
1.94322	-1123.12
1.94338	-1110.03
1.94354	-1127.95
1.9437	-1126.87
1.94386	-1122.78
1.94401	-1133.7
1.94417	-1121.61
1.94433	-1124.53
1.94449	-1113.45
1.94465	-1110.36
1.94481	-1122.28
1.94497	-1121.19
1.94513	-1121.11
1.94528	-1102.02
1.94544	-1118.94
1.9456	-1106.86
1.94576	-1115.77
1.94592	-1110.69
1.94608	-1107.6
1.94624	-1109.52
1.9464	-1102.44
1.94656	-1114.35
1.94672	-1108.27
1.94687	-1109.18
1.94703	-1100.1
1.94719	-1095.01
1.94735	-1106.93
1.94751	-1094.85
1.94767	-1100.76
1.94783	-1101.68
1.94799	-1096.59
1.94815	-1104.51
1.94831	-1106.42
1.94847	-1100.34
1.94863	-1095.26
1.94879	-1091.17
1.94895	-1093.09
1.9491	-1101
1.94926	-1093.92
1.94942	-1082.84
1.94958	-1084.75
1.94974	-1096.67
1.9499	-1086.58
1.95006	-1094.5
1.95022	-1087.41
1.95038	-1092.33
1.95054	-1074.25
1.9507	-1079.16
1.95086	-1084.08
1.95102	-1078.99
1.95118	-1072.91
1.95134	-1085.83
1.9515	-1078.74
1.95166	-1078.66
1.95182	-1082.57
1.95198	-1066.49
1.95214	-1078.4
1.9523	-1074.32
1.95246	-1077.24
1.95262	-1077.15
1.95278	-1074.07
1.95294	-1074.98
1.9531	-1066.9
1.95326	-1072.82
1.95342	-1071.73
1.95358	-1070.65
1.95374	-1059.56
1.9539	-1068.48
1.95406	-1067.39
1.95422	-1059.31
1.95438	-1065.23
1.95454	-1061.14
1.95471	-1063.06
1.95487	-1061.97
1.95503	-1053.89
1.95519	-1057.81
1.95535	-1053.72
1.95551	-1054.64
1.95567	-1056.55
1.95583	-1055.47
1.95599	-1054.38
1.95615	-1053.3
1.95631	-1052.22
1.95647	-1048.13
1.95663	-1050.05
1.95679	-1048.96
1.95695	-1047.88
1.95712	-1046.79
1.95728	-1045.71
1.95744	-1044.63
1.9576	-1043.54
1.95776	-1042.46
1.95792	-1041.37
1.95808	-1040.29
1.95824	-1038.21
1.9584	-1038.12
1.95856	-1037.04
1.95873	-1035.95
1.95889	-1034.87
1.95905	-1033.78
1.95921	-1032.7
1.95937	-1031.62
1.95953	-1030.53
1.95969	-1029.45
1.95986	-1022.36
1.96002	-1027.28
1.96018	-1026.2
1.96034	-1025.11
1.9605	-1017.03
1.96066	-1022.94
1.96082	-1021.86
1.96099	-1020.77
1.96115	-1019.69
1.96131	-1018.61
1.96147	-1017.52
1.96163	-1016.44
1.96179	-1015.35
1.96196	-1014.27
1.96212	-1013.19
1.96228	-1012.1
1.96244	-1011.02
1.9626	-1009.93
1.96276	-1008.85
1.96293	-1007.76
1.96309	-1006.68
1.96325	-1005.6
1.96341	-1004.51
1.96357	-1003.43
1.96374	-1002.34
1.9639	-1001.26
1.96406	-1000.17
1.96422	-999.091
1.96439	-998.007
1.96455	-996.922
1.96471	-995.838
1.96487	-994.754
1.96503	-993.67
1.9652	-992.586
1.96536	-991.501
1.96552	-990.417
1.96568	-989.333
1.96585	-988.249
1.96601	-987.165
1.96617	-986.081
1.96633	-984.996
1.9665	-983.912
1.96666	-982.828
1.96682	-981.744
1.96698	-980.66
1.96715	-979.575
1.96731	-978.491
1.96747	-977.407
1.96763	-976.323
1.9678	-975.239
1.96796	-974.155
1.96812	-973.07
1.96829	-971.986
1.96845	-970.902
1.96861	-969.818
1.96877	-968.734
1.96894	-967.649
1.9691	-966.565
1.96926	-965.481
1.96943	-964.397
1.96959	-963.313
1.96975	-962.229
1.96992	-961.144
1.97008	-960.06
1.97024	-958.976
1.97041	-957.892
1.97057	-956.808
1.97073	-955.723
1.97089	-954.639
1.97106	-953.555
1.97122	-952.471
1.97139	-951.387
1.97155	-950.303
1.97171	-949.218
1.97188	-948.134
1.97204	-947.05
1.9722	-945.966
1.97237	-944.882
1.97253	-943.797
1.97269	-942.713
1.97286	-941.629
1.97302	-940.545
1.97318	-939.461
1.97335	-938.377
1.97351	-937.292
1.97368	-936.208
1.97384	-935.124
1.974	-934.04
1.97417	-932.956
1.97433	-931.871
1.97449	-930.787
1.97466	-929.703
1.97482	-928.619
1.97499	-927.535
1.97515	-926.451
1.97531	-925.366
1.97548	-924.282
1.97564	-923.198
1.97581	-922.114
1.97597	-921.03
1.97614	-919.945
1.9763	-918.861
1.97646	-917.777
1.97663	-916.693
1.97679	-915.609
1.97696	-914.525
1.97712	-913.44
1.97729	-912.356
1.97745	-911.272
1.97761	-910.188
1.97778	-909.104
1.97794	-908.019
1.97811	-906.935
1.97827	-905.851
1.97844	-904.767
1.9786	-903.683
1.97877	-902.598
1.97893	-901.514
1.9791	-900.43
1.97926	-899.346
1.97943	-898.262
1.97959	-897.178
1.97976	-896.093
1.97992	-895.009
1.98009	-893.925
1.98025	-892.841
1.98042	-891.757
1.98058	-890.673
1.98075	-889.588
1.98091	-888.504
1.98108	-887.42
1.98124	-886.336
1.98141	-885.252
1.98157	-884.167
1.98174	-883.083
1.9819	-881.999
1.98207	-880.915
1.98223	-879.831
1.9824	-878.746
1.98256	-877.662
1.98273	-876.578
1.98289	-875.494
1.98306	-874.41
1.98322	-873.326
1.98339	-872.241
1.98355	-871.157
1.98372	-870.073
1.98389	-868.989
1.98405	-867.905
1.98422	-866.82
1.98438	-865.736
1.98455	-864.652
1.98471	-863.568
1.98488	-862.484
1.98505	-861.4
1.98521	-860.315
1.98538	-859.231
1.98554	-858.147
1.98571	-857.063
1.98588	-855.979
1.98604	-854.894
1.98621	-853.81
1.98637	-852.726
1.98654	-851.642
1.98671	-850.558
1.98687	-849.474
1.98704	-848.389
1.9872	-847.305
1.98737	-846.221
1.98754	-845.137
1.9877	-844.053
1.98787	-842.968
1.98803	-841.884
1.9882	-840.8
1.98837	-839.716
1.98853	-838.632
1.9887	-837.547
1.98887	-836.463
1.98903	-835.379
1.9892	-834.295
1.98937	-833.211
1.98953	-832.127
1.9897	-831.042
1.98987	-829.958
1.99003	-828.874
1.9902	-827.79
1.99037	-826.706
1.99053	-825.622
1.9907	-824.537
1.99087	-823.453
1.99103	-822.369
1.9912	-821.285
1.99137	-820.201
1.99153	-819.116
1.9917	-818.032
1.99187	-816.948
1.99203	-815.864
1.9922	-814.78
1.99237	-813.695
1.99254	-812.611
1.9927	-811.527
1.99287	-810.443
1.99304	-809.359
1.9932	-808.275
1.99337	-807.19
1.99354	-806.106
1.99371	-805.022
1.99387	-803.938
1.99404	-802.854
1.99421	-801.769
1.99438	-800.685
1.99454	-799.601
1.99471	-798.517
1.99488	-797.433
1.99505	-796.349
1.99521	-795.264
1.99538	-794.18
1.99555	-793.096
1.99572	-792.012
1.99588	-790.928
1.99602	-786.79
1.99618	-781.401
1.99635	-777.278
1.99652	-779.103
1.99668	-779.24
1.99685	-785.869
1.99702	-785.174
1.99718	-796.79
1.99735	-801.672
1.99752	-814.412
1.99769	-821.917
1.99785	-840.909
1.99802	-850.858
1.99819	-861.806
1.99835	-863.754
1.99852	-873.703
1.99869	-895.651
1.99886	-886.6
1.99902	-905.548
1.99919	-914.497
1.99936	-927.445
1.99953	-929.394
1.99969	-932.342
1.99986	-945.291
2.00003	-963.239
2.0002	-963.188
2.00036	-979.136
2.00053	-994.084
2.0007	-983.033
2.00087	-1003.98
2.00104	-1006.93
2.0012	-1003.88
2.00137	-1014.83
2.00154	-1025.78
2.00171	-1031.72
2.00187	-1041.67
2.00204	-1052.62
2.00221	-1059.57
2.00238	-1041.52
2.00255	-1077.47
2.00271	-1080.41
2.00288	-1080.36
2.00305	-1091.31
2.00322	-1087.26
2.00339	-1093.21
2.00356	-1094.16
2.00372	-1111.11
2.00389	-1120.05
2.00406	-1125
2.00423	-1132.95
2.0044	-1137.9
2.00457	-1143.85
2.00473	-1145.8
2.0049	-1155.74
2.00507	-1148.69
2.00524	-1166.64
2.00541	-1168.59
2.00558	-1180.54
2.00575	-1177.49
2.00591	-1187.44
2.00608	-1183.38
2.00625	-1191.33
2.00642	-1203.28
2.00659	-1198.23
2.00676	-1204.18
2.00693	-1230.13
2.0071	-1221.07
2.00726	-1221.02
2.00743	-1227.97
2.0076	-1232.92
2.00777	-1233.87
2.00794	-1237.82
2.00811	-1231.77
2.00828	-1258.71
2.00845	-1250.66
2.00862	-1248.61
2.00879	-1251.56
2.00895	-1266.51
2.00912	-1256.46
2.00929	-1273.4
2.00946	-1261.35
2.00963	-1274.3
2.0098	-1291.25
2.00997	-1267.2
2.01014	-1295.15
2.01031	-1297.1
2.01048	-1284.04
2.01065	-1299.99
2.01082	-1293.94
2.01099	-1309.89
2.01116	-1302.84
2.01133	-1308.79
2.0115	-1306.73
2.01167	-1319.68
2.01184	-1310.63
2.01201	-1316.58
2.01218	-1333.53
2.01235	-1327.48
2.01252	-1332.43
2.01268	-1336.37
2.01285	-1338.32
2.01302	-1347.27
2.01319	-1347.22
2.01336	-1351.17
2.01353	-1356.12
2.0137	-1361.06
2.01387	-1357.01
2.01404	-1336.96
2.01421	-1359.91
2.01439	-1379.86
2.01456	-1368.81
2.01473	-1368.76
2.0149	-1363.7
2.01507	-1365.65
2.01524	-1380.6
2.01541	-1379.55
2.01558	-1385.5
2.01575	-1369.45
2.01592	-1400.4
2.01609	-1375.34
2.01626	-1376.29
2.01643	-1381.24
2.0166	-1392.19
2.01677	-1386.14
2.01694	-1392.09
2.01711	-1394.03
2.01728	-1395.98
2.01745	-1395.93
2.01762	-1396.88
2.01779	-1395.83
2.01797	-1395.78
2.01814	-1400.73
2.01831	-1400.67
2.01848	-1405.62
2.01865	-1414.57
2.01882	-1418.52
2.01899	-1404.47
2.01916	-1420.42
2.01933	-1421.36
2.0195	-1421.31
2.01968	-1407.26
2.01985	-1425.21
2.02002	-1422.16
2.02019	-1413.11
2.02036	-1425.06
2.02053	-1434
2.0207	-1423.95
2.02087	-1430.9
2.02105	-1432.85
2.02122	-1436.8
2.02139	-1434.75
2.02156	-1433.69
2.02173	-1438.64
2.0219	-1439.59
2.02207	-1437.54
2.02225	-1429.49
2.02242	-1444.44
2.02259	-1432.39
2.02276	-1439.33
2.02293	-1445.28
2.0231	-1444.23
2.02328	-1430.18
2.02345	-1441.13
2.02362	-1442.08
2.02379	-1443.02
2.02396	-1442.97
2.02414	-1440.92
2.02431	-1448.87
2.02448	-1452.82
2.02465	-1458.77
2.02482	-1449.72
2.025	-1455.66
2.02517	-1446.61
2.02534	-1456.56
2.02551	-1457.51
2.02568	-1456.46
2.02586	-1453.41
2.02603	-1465.35
2.0262	-1463.3
2.02637	-1461.25
2.02655	-1457.2
2.02672	-1453.15
2.02689	-1461.1
2.02706	-1455.05
2.02724	-1456.99
2.02741	-1463.94
2.02758	-1464.89
2.02775	-1455.84
2.02793	-1468.79
2.0281	-1467.74
2.02827	-1452.68
2.02844	-1475.63
2.02862	-1463.58
2.02879	-1466.53
2.02896	-1457.48
2.02913	-1467.43
2.02931	-1473.38
2.02948	-1468.32
2.02965	-1467.27
2.02983	-1473.22
2.03	-1465.17
2.03017	-1473.12
2.03035	-1463.07
2.03052	-1466.01
2.03069	-1474.96
2.03086	-1480.91
2.03104	-1478.86
2.03121	-1470.81
2.03138	-1471.76
2.03156	-1466.71
2.03173	-1483.65
2.0319	-1475.6
2.03208	-1469.55
2.03225	-1470.5
2.03242	-1475.45
2.0326	-1472.4
2.03277	-1481.34
2.03294	-1468.29
2.03312	-1471.24
2.03329	-1480.19
2.03347	-1473.14
2.03364	-1474.09
2.03381	-1471.04
2.03399	-1461.98
2.03416	-1479.93
2.03433	-1471.88
2.03451	-1465.83
2.03468	-1472.78
2.03486	-1479.73
2.03503	-1478.67
2.0352	-1478.62
2.03538	-1474.57
2.03555	-1480.52
2.03573	-1480.47
2.0359	-1480.42
2.03607	-1478.37
2.03625	-1473.31
2.03642	-1480.26
2.0366	-1476.21
2.03677	-1479.16
2.03694	-1480.11
2.03712	-1477.06
2.03729	-1466
2.03747	-1473.95
2.03764	-1465.9
2.03782	-1475.85
2.03799	-1473.8
2.03817	-1475.75
2.03834	-1473.7
2.03851	-1471.64
2.03869	-1471.59
2.03886	-1472.54
2.03904	-1469.49
2.03921	-1471.44
2.03939	-1468.39
2.03956	-1477.34
2.03974	-1470.28
2.03991	-1471.23
2.04009	-1468.18
2.04026	-1475.13
2.04044	-1466.08
2.04061	-1471.03
2.04079	-1472.97
2.04096	-1459.92
2.04114	-1487.87
2.04131	-1471.82
2.04149	-1481.77
2.04166	-1470.72
2.04184	-1472.67
2.04201	-1469.61
2.04219	-1471.56
2.04236	-1477.51
2.04254	-1466.46
2.04271	-1477.41
2.04289	-1476.36
2.04306	-1471.3
2.04324	-1470.25
2.04341	-1480.2
2.04359	-1471.15
2.04376	-1472.1
2.04394	-1456.05
2.04412	-1455
2.04429	-1461.94
2.04447	-1460.89
2.04464	-1454.84
2.04482	-1461.79
2.04499	-1477.74
2.04517	-1454.69
2.04535	-1472.63
2.04552	-1461.58
2.0457	-1466.53
2.04587	-1466.48
2.04605	-1469.43
2.04622	-1463.38
2.0464	-1470.33
2.04658	-1455.27
2.04675	-1467.22
2.04693	-1456.17
2.0471	-1456.12
2.04728	-1457.07
2.04746	-1456.02
2.04763	-1468.96
2.04781	-1451.91
2.04799	-1471.86
2.04816	-1469.81
2.04834	-1465.76
2.04851	-1454.71
2.04869	-1446.66
2.04887	-1463.6
2.04904	-1449.55
2.04922	-1456.5
2.0494	-1458.45
2.04957	-1462.4
2.04975	-1458.35
2.04993	-1458.29
2.0501	-1449.24
2.05028	-1452.19
2.05046	-1470.14
2.05063	-1438.09
2.05081	-1453.04
2.05099	-1455.99
2.05116	-1460.93
2.05134	-1451.88
2.05152	-1452.83
2.05169	-1449.78
2.05187	-1447.73
2.05205	-1446.68
2.05223	-1448.62
2.0524	-1449.57
2.05258	-1444.52
2.05276	-1449.47
2.05293	-1448.42
2.05311	-1454.37
2.05329	-1449.32
2.05347	-1446.26
2.05364	-1442.21
2.05382	-1446.16
2.054	-1456.11
2.05417	-1435.06
2.05435	-1441.01
2.05453	-1442.95
2.05471	-1443.9
2.05488	-1440.85
2.05506	-1436.8
2.05524	-1434.75
2.05542	-1427.7
2.05559	-1445.65
2.05577	-1438.59
2.05595	-1442.54
2.05613	-1438.49
2.05631	-1421.44
2.05648	-1434.39
2.05666	-1430.34
2.05684	-1439.28
2.05702	-1425.23
2.05719	-1434.18
2.05737	-1434.13
2.05755	-1429.08
2.05773	-1430.03
2.05791	-1427.98
2.05808	-1425.92
2.05826	-1441.87
2.05844	-1428.82
2.05862	-1436.77
2.0588	-1427.72
2.05898	-1420.67
2.05915	-1424.61
2.05933	-1411.56
2.05951	-1404.51
2.05969	-1431.46
2.05987	-1433.41
2.06005	-1418.36
2.06022	-1429.31
2.0604	-1425.25
2.06058	-1424.2
2.06076	-1420.15
2.06094	-1413.1
2.06112	-1415.05
2.0613	-1412
2.06148	-1419.94
2.06165	-1418.89
2.06183	-1408.84
2.06201	-1409.79
2.06219	-1412.74
2.06237	-1412.69
2.06255	-1407.64
2.06273	-1407.58
2.06291	-1405.53
2.06308	-1417.48
2.06326	-1411.43
2.06344	-1410.38
2.06362	-1404.33
2.0638	-1406.27
2.06398	-1398.22
2.06416	-1414.17
2.06434	-1411.12
2.06452	-1405.07
2.0647	-1408.02
2.06488	-1405.97
2.06506	-1406.91
2.06524	-1396.86
2.06541	-1394.81
2.06559	-1398.76
2.06577	-1406.71
2.06595	-1397.66
2.06613	-1406.6
2.06631	-1411.55
2.06649	-1402.5
2.06667	-1393.45
2.06685	-1394.4
2.06703	-1386.35
2.06721	-1396.3
2.06739	-1387.24
2.06757	-1388.19
2.06775	-1398.14
2.06793	-1403.09
2.06811	-1400.04
2.06829	-1389.99
2.06847	-1378.93
2.06865	-1393.88
2.06883	-1400.83
2.06901	-1384.78
2.06919	-1383.73
2.06937	-1390.68
2.06955	-1386.63
2.06973	-1385.57
2.06991	-1390.52
2.07009	-1380.47
2.07027	-1391.42
2.07045	-1389.37
2.07063	-1377.32
2.07081	-1386.27
2.07099	-1388.21
2.07117	-1386.16
2.07135	-1382.11
2.07154	-1373.06
2.07172	-1382.01
2.0719	-1382.96
2.07208	-1367.9
2.07226	-1370.85
2.07244	-1379.8
2.07262	-1378.75
2.0728	-1377.7
2.07298	-1376.65
2.07316	-1375.6
2.07334	-1369.54
2.07352	-1373.49
2.0737	-1372.44
2.07389	-1371.39
2.07407	-1366.34
2.07425	-1369.29
2.07443	-1368.23
2.07461	-1367.18
2.07479	-1366.13
2.07497	-1365.08
2.07515	-1364.03
2.07533	-1362.98
2.07552	-1361.93
2.0757	-1360.87
2.07588	-1359.82
2.07606	-1353.77
2.07624	-1357.72
2.07642	-1356.67
2.0766	-1355.62
2.07679	-1352.56
2.07697	-1345.51
2.07715	-1352.46
2.07733	-1351.41
2.07751	-1350.36
2.07769	-1349.31
2.07788	-1345.26
2.07806	-1347.2
2.07824	-1346.15
2.07842	-1342.1
2.0786	-1344.05
2.07879	-1343
2.07897	-1341.95
2.07915	-1340.89
2.07933	-1339.84
2.07951	-1338.79
2.07969	-1337.74
2.07988	-1336.69
2.08006	-1335.64
2.08024	-1334.59
2.08042	-1333.53
2.08061	-1332.48
2.08079	-1331.43
2.08097	-1330.38
2.08115	-1329.33
2.08134	-1328.28
2.08152	-1324.22
2.0817	-1326.17
2.08188	-1325.12
2.08206	-1324.07
2.08225	-1323.02
2.08243	-1321.97
2.08261	-1320.92
2.0828	-1319.86
2.08298	-1317.81
2.08316	-1317.76
2.08334	-1316.71
2.08353	-1315.66
2.08371	-1314.61
2.08389	-1313.55
2.08407	-1312.5
2.08426	-1311.45
2.08444	-1310.4
2.08462	-1309.35
2.08481	-1308.3
2.08499	-1307.25
2.08517	-1306.19
2.08536	-1305.14
2.08554	-1304.09
2.08572	-1303.04
2.08591	-1301.99
2.08609	-1300.94
2.08627	-1299.88
2.08645	-1298.83
2.08664	-1297.78
2.08682	-1296.73
2.08701	-1295.68
2.08719	-1294.63
2.08737	-1293.58
2.08756	-1292.52
2.08774	-1291.47
2.08792	-1290.42
2.08811	-1289.37
2.08829	-1288.32
2.08847	-1287.27
2.08866	-1286.21
2.08884	-1285.16
2.08903	-1284.11
2.08921	-1283.06
2.08939	-1282.01
2.08958	-1280.96
2.08976	-1279.91
2.08994	-1278.85
2.09013	-1277.8
2.09031	-1276.75
2.0905	-1275.7
2.09068	-1274.65
2.09086	-1273.6
2.09105	-1272.54
2.09123	-1271.49
2.09142	-1270.44
2.0916	-1269.39
2.09179	-1268.34
2.09197	-1267.29
2.09215	-1266.24
2.09234	-1265.18
2.09252	-1264.13
2.09271	-1263.08
2.09289	-1262.03
2.09308	-1260.98
2.09326	-1259.93
2.09345	-1258.88
2.09363	-1257.82
2.09382	-1256.77
2.094	-1255.72
2.09418	-1254.67
2.09437	-1253.62
2.09455	-1252.57
2.09474	-1251.51
2.09492	-1250.46
2.09511	-1249.41
2.09529	-1248.36
2.09548	-1247.31
2.09566	-1246.26
2.09585	-1245.2
2.09603	-1244.15
2.09622	-1243.1
2.0964	-1242.05
2.09659	-1241
2.09678	-1239.95
2.09696	-1238.9
2.09715	-1237.84
2.09733	-1236.79
2.09752	-1235.74
2.0977	-1234.69
2.09789	-1233.64
2.09807	-1232.59
2.09826	-1231.54
2.09844	-1230.48
2.09863	-1229.43
2.09881	-1228.38
2.099	-1227.33
2.09919	-1226.28
2.09937	-1225.23
2.09956	-1224.17
2.09974	-1223.12
2.09993	-1222.07
2.10011	-1221.02
2.1003	-1219.97
2.10049	-1218.92
2.10067	-1217.87
2.10086	-1216.81
2.10104	-1215.76
2.10123	-1214.71
2.10142	-1213.66
2.1016	-1212.61
2.10179	-1211.56
2.10198	-1210.5
2.10216	-1209.45
2.10235	-1208.4
2.10253	-1207.35
2.10272	-1206.3
2.10291	-1205.25
2.10309	-1204.2
2.10328	-1203.14
2.10347	-1202.09
2.10365	-1201.04
2.10384	-1199.99
2.10403	-1198.94
2.10421	-1197.89
2.1044	-1196.83
2.10459	-1195.78
2.10477	-1194.73
2.10496	-1193.68
2.10515	-1192.63
2.10533	-1191.58
2.10552	-1190.53
2.10571	-1189.47
2.10589	-1188.42
2.10608	-1187.37
2.10627	-1186.32
2.10645	-1185.27
2.10664	-1184.22
2.10683	-1183.16
2.10702	-1182.11
2.1072	-1181.06
2.10739	-1180.01
2.10758	-1178.96
2.10776	-1177.91
2.10795	-1176.86
2.10814	-1175.8
2.10833	-1174.75
2.10851	-1173.7
2.1087	-1172.65
2.10889	-1171.6
2.10908	-1170.55
2.10926	-1169.49
2.10945	-1168.44
2.10964	-1167.39
2.10983	-1166.34
2.11001	-1165.29
2.1102	-1164.24
2.11039	-1163.19
2.11058	-1162.13
2.11077	-1161.08
2.11095	-1160.03
2.11114	-1158.98
2.11133	-1157.93
2.11152	-1156.88
2.11171	-1155.82
2.11189	-1154.77
2.11208	-1153.72
2.11227	-1152.67
2.11246	-1151.62
2.11265	-1150.57
2.11283	-1149.52
2.11302	-1148.46
2.11321	-1147.41
2.1134	-1146.36
2.11359	-1145.31
2.11378	-1144.26
2.11396	-1143.21
2.11415	-1142.15
2.11434	-1141.1
2.11453	-1140.05
2.11472	-1139
2.11491	-1137.95
2.1151	-1136.9
2.11528	-1135.85
2.11547	-1134.79
2.11566	-1133.74
2.11585	-1132.69
2.11604	-1131.64
2.11623	-1130.59
2.11642	-1129.54
2.11661	-1128.48
2.11679	-1127.43
2.11698	-1126.38
2.11717	-1125.33
2.11736	-1124.28
2.11755	-1123.23
2.11774	-1122.18
2.11793	-1121.12
2.11812	-1120.07
2.11831	-1119.02
2.1185	-1117.97
2.11869	-1116.92
2.11888	-1115.87
2.11907	-1114.81
2.11925	-1113.76
2.11944	-1112.71
2.11963	-1111.66
2.11982	-1110.61
2.12001	-1109.56
2.1202	-1108.51
2.12039	-1107.45
2.12058	-1106.4
2.12077	-1105.35
2.12096	-1104.3
2.12115	-1103.25
2.12134	-1102.2
2.12153	-1101.15
2.12172	-1100.09
2.12191	-1099.04
2.1221	-1097.99
2.12229	-1096.94
2.12248	-1095.89
2.12267	-1094.84
2.12286	-1093.78
2.12305	-1092.73
2.12324	-1091.68
2.12343	-1090.63
2.12362	-1089.58
2.12381	-1088.53
2.124	-1087.48
2.12419	-1086.42
2.12438	-1085.37
2.12457	-1084.32
2.12476	-1083.27
2.12495	-1082.22
2.12514	-1081.17
2.12533	-1080.11
2.12553	-1079.06
2.12572	-1078.01
2.12591	-1076.96
2.1261	-1075.91
2.12629	-1074.86
2.12648	-1073.81
2.12667	-1072.75
2.12686	-1071.7
2.12705	-1070.65
2.12724	-1069.6
2.12743	-1068.55
2.12762	-1067.5
2.12782	-1066.44
2.12801	-1065.39
2.1282	-1064.34
2.12839	-1063.29
2.12858	-1062.24
2.12877	-1061.19
2.12896	-1060.14
2.12915	-1059.08
2.12935	-1058.03
2.12954	-1056.98
2.12973	-1055.93
2.12992	-1054.88
2.13011	-1053.83
2.1303	-1052.77
2.13049	-1051.72
2.13069	-1050.67
2.13088	-1049.62
2.13107	-1048.57
2.13126	-1047.52
2.13145	-1046.47
2.13164	-1045.41
2.13184	-1044.36
2.13203	-1043.31
2.13222	-1042.26
2.13241	-1041.21
2.1326	-1040.16
2.13279	-1039.1
2.13299	-1038.05
2.13318	-1037
2.13337	-1035.95
2.13356	-1034.9
2.13376	-1033.85
2.13395	-1032.8
2.13414	-1031.74
2.13433	-1030.69
2.13452	-1029.64
2.13472	-1028.59
2.13491	-1027.54
2.1351	-1026.49
2.13529	-1025.43
2.13549	-1024.38
2.13568	-1023.33
2.13587	-1022.28
2.13606	-1021.23
2.13626	-1020.18
2.13645	-1019.13
2.13664	-1018.07
2.13683	-1017.02
2.13703	-1015.97
2.13722	-1014.92
2.13741	-1013.87
2.13761	-1012.82
2.1378	-1011.76
2.13799	-1010.71
2.13818	-1009.66
2.13838	-1008.61
2.13857	-1007.56
2.13876	-1006.51
2.13896	-1005.46
2.13915	-1004.4
2.13934	-1003.35
2.13954	-1002.3
2.13973	-1001.25
2.13992	-1000.2
2.14012	-999.146
2.14031	-998.095
2.1405	-997.043
2.1407	-995.992
2.14089	-994.94
2.14108	-993.889
2.14128	-992.837
2.14147	-991.786
2.14166	-990.734
2.14186	-989.682
2.14205	-988.631
2.14225	-987.579
2.14244	-986.528
2.14263	-985.476
2.14283	-984.425
2.14302	-983.373
2.14322	-982.322
2.14341	-981.27
2.1436	-980.219
2.1438	-979.167
2.14399	-978.116
2.14419	-977.064
2.14438	-976.013
2.14457	-974.961
2.14477	-973.909
2.14496	-972.858
2.14516	-971.806
2.14535	-970.755
2.14555	-969.703
2.14574	-968.652
2.14593	-967.6
2.14613	-966.549
2.14632	-965.497
2.14652	-964.446
2.14671	-963.394
2.14691	-962.343
2.1471	-961.291
2.1473	-960.24
2.14749	-959.188
2.14769	-958.136
2.14788	-957.085
2.14808	-956.033
2.14827	-954.982
2.14847	-953.93
2.14866	-952.879
2.14886	-951.827
2.14905	-950.776
2.14925	-949.724
2.14944	-948.673
2.14964	-947.621
2.14983	-946.57
2.15003	-945.518
2.15022	-944.466
2.15042	-943.415
2.15061	-942.364
2.15081	-941.312
2.151	-940.26
2.1512	-939.209
2.15139	-938.157
2.15159	-937.106
2.15179	-936.054
2.15198	-935.003
2.15218	-933.951
2.15237	-932.9
2.15257	-931.848
2.15276	-930.797
2.15296	-929.745
2.15315	-928.694
2.15335	-927.642
2.15355	-926.591
2.15374	-925.539
2.15394	-924.487
2.15413	-923.436
2.15433	-922.384
2.15453	-921.333
2.15472	-920.281
2.15492	-919.23
2.15512	-918.178
2.15531	-917.127
2.15551	-916.075
2.1557	-915.024
2.1559	-913.972
2.1561	-912.921
2.15629	-911.869
2.15649	-910.818
2.15669	-909.766
2.15688	-908.714
2.15708	-907.663
2.15728	-906.611
2.15747	-905.56
2.15767	-904.508
2.15787	-903.457
2.15806	-902.405
2.15826	-901.354
2.15846	-900.302
2.15865	-899.251
2.15885	-898.199
2.15905	-897.148
2.15924	-896.096
2.15944	-895.044
2.15964	-893.993
2.15984	-892.941
2.16003	-891.89
2.16023	-890.838
2.16043	-889.787
2.16062	-888.735
2.16082	-887.684
2.16102	-886.632
2.16122	-885.581
2.16141	-884.529
2.16161	-883.478
2.16181	-882.426
2.16201	-881.375
2.1622	-880.323
2.1624	-879.271
2.1626	-878.22
2.1628	-877.168
2.16299	-876.117
2.16319	-875.065
2.16339	-874.014
2.16359	-872.962
2.16378	-871.911
2.16398	-870.859
2.16418	-869.808
2.16438	-868.756
2.16458	-867.705
2.16477	-866.653
2.16497	-865.602
2.16517	-864.55
2.16537	-863.498
2.16557	-862.447
2.16577	-861.395
2.16596	-860.344
2.16616	-859.292
2.16636	-858.241
2.16656	-857.189
2.16676	-856.138
2.16696	-855.086
2.16715	-854.035
2.16735	-852.983
2.16755	-851.932
2.16775	-850.88
2.16795	-849.829
2.16815	-848.777
2.16835	-847.726
2.16854	-846.674
2.16874	-845.622
2.16894	-844.571
2.16914	-843.519
2.16934	-842.468
2.16954	-841.416
2.16974	-840.365
2.16994	-839.313
2.17014	-838.262
2.17034	-837.21
2.17053	-836.159
2.17073	-835.107
2.17093	-834.056
2.17113	-833.004
2.17133	-831.952
2.17153	-830.901
2.17173	-829.849
2.17193	-828.798
2.17213	-827.746
2.17233	-826.695
2.17253	-825.643
2.17273	-824.592
2.17293	-823.54
2.17313	-822.489
2.17333	-821.437
2.17353	-820.386
2.17373	-819.334
2.17393	-818.283
2.17413	-817.231
2.17433	-816.18
2.17453	-815.128
2.17473	-814.076
2.17493	-813.025
2.17513	-811.973
2.17533	-810.922
2.17553	-809.87
2.17573	-808.819
2.17593	-807.767
2.17613	-806.716
2.17633	-805.664
2.17653	-804.613
2.17673	-803.561
2.17693	-802.51
2.17713	-801.458
2.17733	-800.406
2.17753	-799.355
2.17773	-798.303
2.17792	-794.444
2.17812	-788.934
2.17832	-787.24
2.17852	-786.997
2.17872	-784.525
2.17892	-791.323
2.17912	-793.982
2.17932	-800.547
2.17952	-812.109
2.17972	-815.942
2.17992	-833.59
2.18012	-855.05
2.18032	-854.278
2.18052	-873.507
2.18072	-875.736
2.18092	-884.964
2.18112	-896.193
2.18132	-912.421
2.18152	-917.65
2.18172	-923.878
2.18192	-931.107
2.18212	-949.335
2.18232	-949.564
2.18253	-960.792
2.18273	-974.021
2.18293	-974.25
2.18313	-984.478
2.18333	-1000.71
2.18353	-1000.94
2.18373	-1014.16
2.18393	-1015.39
2.18413	-1030.62
2.18433	-1028.85
2.18453	-1045.08
2.18473	-1052.31
2.18493	-1055.54
2.18514	-1065.76
2.18534	-1078.99
2.18554	-1082.22
2.18574	-1085.45
2.18594	-1098.68
2.18614	-1099.91
2.18634	-1108.13
2.18654	-1112.36
2.18675	-1129.59
2.18695	-1124.82
2.18715	-1142.05
2.18735	-1143.28
2.18755	-1155.51
2.18775	-1152.73
2.18795	-1164.96
2.18816	-1157.19
2.18836	-1180.42
2.18856	-1194.65
2.18876	-1186.88
2.18896	-1196.11
2.18916	-1195.33
2.18937	-1202.56
2.18957	-1213.79
2.18977	-1223.02
2.18997	-1227.25
2.19017	-1229.48
2.19038	-1232.71
2.19058	-1242.93
2.19078	-1246.16
2.19098	-1247.39
2.19118	-1266.62
2.19139	-1266.85
2.19159	-1269.08
2.19179	-1265.31
2.19199	-1272.53
2.1922	-1268.76
2.1924	-1282.99
2.1926	-1290.22
2.1928	-1294.45
2.19301	-1291.68
2.19321	-1301.91
2.19341	-1305.13
2.19361	-1318.36
2.19382	-1311.59
2.19402	-1320.82
2.19422	-1325.05
2.19443	-1329.28
2.19463	-1323.51
2.19483	-1334.73
2.19503	-1339.96
2.19524	-1334.19
2.19544	-1347.42
2.19564	-1342.65
2.19585	-1362.88
2.19605	-1358.11
2.19625	-1361.33
2.19646	-1371.56
2.19666	-1368.79
2.19686	-1372.02
2.19707	-1378.25
2.19727	-1384.48
2.19747	-1373.71
2.19768	-1378.93
2.19788	-1381.16
2.19808	-1390.39
2.19829	-1391.62
2.19849	-1405.85
2.19869	-1395.08
2.1989	-1407.3
2.1991	-1397.53
2.19931	-1413.76
2.19951	-1415.99
2.19971	-1412.22
2.19992	-1416.45
2.20012	-1424.68
2.20033	-1426.9
2.20053	-1422.13
2.20073	-1423.36
2.20094	-1419.59
2.20114	-1439.82
2.20135	-1429.05
2.20155	-1437.28
2.20175	-1445.5
2.20196	-1444.73
2.20216	-1436.96
2.20237	-1452.19
2.20257	-1452.42
2.20278	-1457.65
2.20298	-1444.88
2.20319	-1457.1
2.20339	-1460.33
2.20359	-1451.56
2.2038	-1465.79
2.204	-1471.02
2.20421	-1475.25
2.20441	-1473.48
2.20462	-1476.7
2.20482	-1478.93
2.20503	-1470.16
2.20523	-1477.39
2.20544	-1476.62
2.20564	-1483.85
2.20585	-1485.08
2.20605	-1479.3
2.20626	-1483.53
2.20646	-1499.76
2.20667	-1483.99
2.20687	-1498.22
2.20708	-1491.45
2.20728	-1495.68
2.20749	-1493.9
2.2077	-1501.13
2.2079	-1510.36
2.20811	-1499.59
2.20831	-1501.82
2.20852	-1500.05
2.20872	-1497.28
2.20893	-1515.5
2.20913	-1519.73
2.20934	-1510.96
2.20955	-1513.19
2.20975	-1507.42
2.20996	-1518.65
2.21016	-1510.88
2.21037	-1510.1
2.21058	-1528.33
2.21078	-1519.56
2.21099	-1521.79
2.21119	-1519.02
2.2114	-1515.25
2.21161	-1525.48
2.21181	-1529.7
2.21202	-1523.93
2.21222	-1526.16
2.21243	-1529.39
2.21264	-1528.62
2.21284	-1531.85
2.21305	-1522.07
2.21326	-1546.3
2.21346	-1534.53
2.21367	-1532.76
2.21388	-1539.99
2.21408	-1534.22
2.21429	-1544.45
2.2145	-1540.67
2.2147	-1544.9
2.21491	-1545.13
2.21512	-1544.36
2.21532	-1543.59
2.21553	-1547.82
2.21574	-1544.05
2.21595	-1544.27
2.21615	-1550.5
2.21636	-1547.73
2.21657	-1530.96
2.21677	-1551.19
2.21698	-1552.42
2.21719	-1546.65
2.2174	-1546.87
2.2176	-1563.1
2.21781	-1550.33
2.21802	-1553.56
2.21823	-1558.79
2.21843	-1542.02
2.21864	-1560.25
2.21885	-1554.47
2.21906	-1553.7
2.21926	-1554.93
2.21947	-1555.16
2.21968	-1562.39
2.21989	-1555.62
2.2201	-1564.85
2.2203	-1560.07
2.22051	-1556.3
2.22072	-1564.53
2.22093	-1568.76
2.22114	-1558.99
2.22134	-1560.22
2.22155	-1559.45
2.22176	-1565.67
2.22197	-1561.9
2.22218	-1556.13
2.22238	-1559.36
2.22259	-1561.59
2.2228	-1567.82
2.22301	-1562.05
2.22322	-1573.27
2.22343	-1561.5
2.22364	-1571.73
2.22384	-1561.96
2.22405	-1564.19
2.22426	-1576.42
2.22447	-1565.65
2.22468	-1570.87
2.22489	-1567.1
2.2251	-1569.33
2.22531	-1570.56
2.22551	-1568.79
2.22572	-1568.02
2.22593	-1576.24
2.22614	-1578.47
2.22635	-1565.7
2.22656	-1577.93
2.22677	-1565.16
2.22698	-1570.39
2.22719	-1576.62
2.2274	-1573.84
2.22761	-1580.07
2.22782	-1572.3
2.22802	-1570.53
2.22823	-1568.76
2.22844	-1574.99
2.22865	-1572.22
2.22886	-1575.44
2.22907	-1586.67
2.22928	-1571.9
2.22949	-1570.13
2.2297	-1568.36
2.22991	-1575.59
2.23012	-1569.82
2.23033	-1572.04
2.23054	-1564.27
2.23075	-1565.5
2.23096	-1571.73
2.23117	-1567.96
2.23138	-1577.19
2.23159	-1582.42
2.2318	-1576.64
2.23201	-1577.87
2.23222	-1569.1
2.23243	-1569.33
2.23264	-1575.56
2.23285	-1570.79
2.23306	-1580.02
2.23327	-1570.24
2.23348	-1575.47
2.2337	-1567.7
2.23391	-1560.93
2.23412	-1568.16
2.23433	-1559.39
2.23454	-1573.62
2.23475	-1571.84
2.23496	-1580.07
2.23517	-1576.3
2.23538	-1568.53
2.23559	-1575.76
2.2358	-1564.99
2.23601	-1565.22
2.23623	-1566.44
2.23644	-1572.67
2.23665	-1578.9
2.23686	-1563.13
2.23707	-1569.36
2.23728	-1569.59
2.23749	-1575.82
2.2377	-1569.04
2.23792	-1575.27
2.23813	-1563.5
2.23834	-1572.73
2.23855	-1570.96
2.23876	-1560.19
2.23897	-1576.42
2.23918	-1570.64
2.2394	-1572.87
2.23961	-1561.1
2.23982	-1569.33
2.24003	-1568.56
2.24024	-1567.79
2.24046	-1568.02
2.24067	-1561.24
2.24088	-1563.47
2.24109	-1569.7
2.2413	-1574.93
2.24152	-1572.16
2.24173	-1565.39
2.24194	-1577.61
2.24215	-1567.84
2.24236	-1549.07
2.24258	-1569.3
2.24279	-1566.53
2.243	-1562.76
2.24321	-1567.99
2.24343	-1566.21
2.24364	-1562.44
2.24385	-1552.67
2.24406	-1563.9
2.24428	-1557.13
2.24449	-1567.36
2.2447	-1564.59
2.24491	-1563.81
2.24513	-1567.04
2.24534	-1565.27
2.24555	-1560.5
2.24577	-1565.73
2.24598	-1557.96
2.24619	-1558.19
2.24641	-1562.41
2.24662	-1555.64
2.24683	-1557.87
2.24705	-1557.1
2.24726	-1553.33
2.24747	-1554.56
2.24768	-1554.79
2.2479	-1558.01
2.24811	-1557.24
2.24833	-1556.47
2.24854	-1555.7
2.24875	-1554.93
2.24897	-1554.16
2.24918	-1553.39
2.24939	-1552.61
2.24961	-1551.84
2.24982	-1551.07
2.25003	-1550.3
2.25025	-1549.53
2.25046	-1548.76
2.25068	-1547.99
2.25089	-1547.21
2.2511	-1545.44
2.25132	-1545.67
2.25153	-1544.9
2.25175	-1544.13
2.25196	-1540.36
2.25217	-1542.59
2.25239	-1541.81
2.2526	-1535.04
2.25282	-1540.27
2.25303	-1539.5
2.25325	-1538.73
2.25346	-1537.96
2.25368	-1537.19
2.25389	-1536.41
2.2541	-1535.64
2.25432	-1534.87
2.25453	-1534.1
2.25475	-1533.33
2.25496	-1532.56
2.25518	-1531.79
2.25539	-1531.01
2.25561	-1530.24
2.25582	-1529.47
2.25604	-1528.7
2.25625	-1527.93
2.25647	-1527.16
2.25668	-1526.38
2.2569	-1525.61
2.25711	-1524.84
2.25733	-1524.07
2.25754	-1523.3
2.25776	-1522.53
2.25798	-1521.76
2.25819	-1520.98
2.25841	-1520.21
2.25862	-1519.44
2.25884	-1518.67
2.25905	-1517.9
2.25927	-1517.13
2.25948	-1516.36
2.2597	-1515.58
2.25992	-1514.81
2.26013	-1514.04
2.26035	-1513.27
2.26056	-1512.5
2.26078	-1511.73
2.261	-1510.96
2.26121	-1510.18
2.26143	-1509.41
2.26164	-1508.64
2.26186	-1507.87
2.26208	-1507.1
2.26229	-1506.33
2.26251	-1505.56
2.26272	-1504.78
2.26294	-1504.01
2.26316	-1503.24
2.26337	-1502.47
2.26359	-1501.7
2.26381	-1500.93
2.26402	-1500.16
2.26424	-1499.38
2.26446	-1498.61
2.26467	-1497.84
2.26489	-1497.07
2.26511	-1496.3
2.26532	-1495.53
2.26554	-1494.76
2.26576	-1493.98
2.26598	-1493.21
2.26619	-1492.44
2.26641	-1491.67
2.26663	-1490.9
2.26684	-1490.13
2.26706	-1489.36
2.26728	-1488.58
2.2675	-1487.81
2.26771	-1487.04
2.26793	-1486.27
2.26815	-1485.5
2.26837	-1484.73
2.26858	-1483.96
2.2688	-1483.18
2.26902	-1482.41
2.26924	-1481.64
2.26945	-1480.87
2.26967	-1480.1
2.26989	-1479.33
2.27011	-1478.55
2.27032	-1477.78
2.27054	-1477.01
2.27076	-1476.24
2.27098	-1475.47
2.2712	-1474.7
2.27141	-1473.93
2.27163	-1473.15
2.27185	-1472.38
2.27207	-1471.61
2.27229	-1470.84
2.27251	-1470.07
2.27272	-1469.3
2.27294	-1468.53
2.27316	-1467.75
2.27338	-1466.98
2.2736	-1466.21
2.27382	-1465.44
2.27403	-1464.67
2.27425	-1463.9
2.27447	-1463.13
2.27469	-1462.35
2.27491	-1461.58
2.27513	-1460.81
2.27535	-1460.04
2.27557	-1459.27
2.27579	-1458.5
2.276	-1457.73
2.27622	-1456.95
2.27644	-1456.18
2.27666	-1455.41
2.27688	-1454.64
2.2771	-1453.87
2.27732	-1453.1
2.27754	-1452.33
2.27776	-1451.55
2.27798	-1450.78
2.2782	-1450.01
2.27842	-1449.24
2.27864	-1448.47
2.27886	-1447.7
2.27907	-1446.93
2.27929	-1446.15
2.27951	-1445.38
2.27973	-1444.61
2.27995	-1443.84
2.28017	-1443.07
2.28039	-1442.3
2.28061	-1441.53
2.28083	-1440.75
2.28105	-1439.98
2.28127	-1439.21
2.28149	-1438.44
2.28171	-1437.67
2.28193	-1436.9
2.28215	-1436.13
2.28237	-1435.35
2.2826	-1434.58
2.28282	-1433.81
2.28304	-1433.04
2.28326	-1432.27
2.28348	-1431.5
2.2837	-1430.73
2.28392	-1429.95
2.28414	-1429.18
2.28436	-1428.41
2.28458	-1427.64
2.2848	-1426.87
2.28502	-1426.1
2.28524	-1425.32
2.28546	-1424.55
2.28568	-1423.78
2.28591	-1423.01
2.28613	-1422.24
2.28635	-1421.47
2.28657	-1420.7
2.28679	-1419.92
2.28701	-1419.15
2.28723	-1418.38
2.28745	-1417.61
2.28768	-1416.84
2.2879	-1416.07
2.28812	-1415.3
2.28834	-1414.52
2.28856	-1413.75
2.28878	-1412.98
2.289	-1412.21
2.28923	-1411.44
2.28945	-1410.67
2.28967	-1409.9
2.28989	-1409.12
2.29011	-1408.35
2.29033	-1407.58
2.29056	-1406.81
2.29078	-1406.04
2.291	-1405.27
2.29122	-1404.5
2.29145	-1403.72
2.29167	-1402.95
2.29189	-1402.18
2.29211	-1401.41
2.29233	-1400.64
2.29256	-1399.87
2.29278	-1399.1
2.293	-1398.32
2.29322	-1397.55
2.29345	-1396.78
2.29367	-1396.01
2.29389	-1395.24
2.29411	-1394.47
2.29434	-1393.7
2.29456	-1392.92
2.29478	-1392.15
2.29501	-1391.38
2.29523	-1390.61
2.29545	-1389.84
2.29567	-1389.07
2.2959	-1388.3
2.29612	-1387.52
2.29634	-1386.75
2.29657	-1385.98
2.29679	-1385.21
2.29701	-1384.44
2.29724	-1383.67
2.29746	-1382.9
2.29768	-1382.12
2.29791	-1381.35
2.29813	-1380.58
2.29835	-1379.81
2.29858	-1379.04
2.2988	-1378.27
2.29902	-1377.49
2.29925	-1376.72
2.29947	-1375.95
2.2997	-1375.18
2.29992	-1374.41
2.30014	-1373.64
2.30037	-1372.87
2.30059	-1372.09
2.30082	-1371.32
2.30104	-1370.55
2.30126	-1369.78
2.30149	-1369.01
2.30171	-1368.24
2.30194	-1367.47
2.30216	-1366.69
2.30239	-1365.92
2.30261	-1365.15
2.30283	-1364.38
2.30306	-1363.61
2.30328	-1362.84
2.30351	-1362.07
2.30373	-1361.29
2.30396	-1360.52
2.30418	-1359.75
2.30441	-1358.98
2.30463	-1358.21
2.30486	-1357.44
2.30508	-1356.67
2.30531	-1355.89
2.30553	-1355.12
2.30576	-1354.35
2.30598	-1353.58
2.30621	-1352.81
2.30643	-1352.04
2.30666	-1351.27
2.30688	-1350.49
2.30711	-1349.72
2.30733	-1348.95
2.30756	-1348.18
2.30778	-1347.41
2.30801	-1346.64
2.30823	-1345.87
2.30846	-1345.09
2.30869	-1344.32
2.30891	-1343.55
2.30914	-1342.78
2.30936	-1342.01
2.30959	-1341.24
2.30981	-1340.47
2.31004	-1339.69
2.31027	-1338.92
2.31049	-1338.15
2.31072	-1337.38
2.31094	-1336.61
2.31117	-1335.84
2.3114	-1335.07
2.31162	-1334.29
2.31185	-1333.52
2.31208	-1332.75
2.3123	-1331.98
2.31253	-1331.21
2.31275	-1330.44
2.31298	-1329.67
2.31321	-1328.89
2.31343	-1328.12
2.31366	-1327.35
2.31389	-1326.58
2.31411	-1325.81
2.31434	-1325.04
2.31457	-1324.26
2.31479	-1323.49
2.31502	-1322.72
2.31525	-1321.95
2.31548	-1321.18
2.3157	-1320.41
2.31593	-1319.64
2.31616	-1318.86
2.31638	-1318.09
2.31661	-1317.32
2.31684	-1316.55
2.31707	-1315.78
2.31729	-1315.01
2.31752	-1314.24
2.31775	-1313.46
2.31798	-1312.69
2.3182	-1311.92
2.31843	-1311.15
2.31866	-1310.38
2.31889	-1309.61
2.31911	-1308.84
2.31934	-1308.06
2.31957	-1307.29
2.3198	-1306.52
2.32003	-1305.75
2.32025	-1304.98
2.32048	-1304.21
2.32071	-1303.44
2.32094	-1302.66
2.32117	-1301.89
2.32139	-1301.12
2.32162	-1300.35
2.32185	-1299.58
2.32208	-1298.81
2.32231	-1298.04
2.32254	-1297.26
2.32277	-1296.49
2.32299	-1295.72
2.32322	-1294.95
2.32345	-1294.18
2.32368	-1293.41
2.32391	-1292.64
2.32414	-1291.86
2.32437	-1291.09
2.32459	-1290.32
2.32482	-1289.55
2.32505	-1288.78
2.32528	-1288.01
2.32551	-1287.24
2.32574	-1286.46
2.32597	-1285.69
2.3262	-1284.92
2.32643	-1284.15
2.32666	-1283.38
2.32689	-1282.61
2.32712	-1281.84
2.32735	-1281.06
2.32757	-1280.29
2.3278	-1279.52
2.32803	-1278.75
2.32826	-1277.98
2.32849	-1277.21
2.32872	-1276.44
2.32895	-1275.66
2.32918	-1274.89
2.32941	-1274.12
2.32964	-1273.35
2.32987	-1272.58
2.3301	-1271.81
2.33033	-1271.03
2.33056	-1270.26
2.33079	-1269.49
2.33102	-1268.72
2.33125	-1267.95
2.33148	-1267.18
2.33171	-1266.41
2.33194	-1265.63
2.33217	-1264.86
2.33241	-1264.09
2.33264	-1263.32
2.33287	-1262.55
2.3331	-1261.78
2.33333	-1261.01
2.33356	-1260.23
2.33379	-1259.46
2.33402	-1258.69
2.33425	-1257.92
2.33448	-1257.15
2.33471	-1256.38
2.33494	-1255.61
2.33517	-1254.83
2.33541	-1254.06
2.33564	-1253.29
2.33587	-1252.52
2.3361	-1251.75
2.33633	-1250.98
2.33656	-1250.21
2.33679	-1249.43
2.33702	-1248.66
2.33726	-1247.89
2.33749	-1247.12
2.33772	-1246.35
2.33795	-1245.58
2.33818	-1244.81
2.33841	-1244.03
2.33865	-1243.26
2.33888	-1242.49
2.33911	-1241.72
2.33934	-1240.95
2.33957	-1240.18
2.33981	-1239.41
2.34004	-1238.63
2.34027	-1237.86
2.3405	-1237.09
2.34073	-1236.32
2.34097	-1235.55
2.3412	-1234.78
2.34143	-1234.01
2.34166	-1233.23
2.3419	-1232.46
2.34213	-1231.69
2.34236	-1230.92
2.34259	-1230.15
2.34283	-1229.38
2.34306	-1228.61
2.34329	-1227.83
2.34352	-1227.06
2.34376	-1226.29
2.34399	-1225.52
2.34422	-1224.75
2.34446	-1223.98
2.34469	-1223.2
2.34492	-1222.43
2.34516	-1221.66
2.34539	-1220.89
2.34562	-1220.12
2.34586	-1219.35
2.34609	-1218.58
2.34632	-1217.8
2.34656	-1217.03
2.34679	-1216.26
2.34702	-1215.49
2.34726	-1214.72
2.34749	-1213.95
2.34772	-1213.18
2.34796	-1212.4
2.34819	-1211.63
2.34842	-1210.86
2.34866	-1210.09
2.34889	-1209.32
2.34913	-1208.55
2.34936	-1207.78
2.34959	-1207
2.34983	-1206.23
2.35006	-1205.46
2.3503	-1204.69
2.35053	-1203.92
2.35076	-1203.15
2.351	-1202.38
2.35123	-1201.6
2.35147	-1200.83
2.3517	-1200.06
2.35194	-1199.29
2.35217	-1198.52
2.35241	-1197.75
2.35264	-1196.98
2.35288	-1196.2
2.35311	-1195.43
2.35335	-1194.66
2.35358	-1193.89
2.35382	-1193.12
2.35405	-1192.35
2.35429	-1191.58
2.35452	-1190.8
2.35476	-1190.03
2.35499	-1189.26
2.35523	-1188.49
2.35546	-1187.72
2.3557	-1186.95
2.35593	-1186.18
2.35617	-1185.4
2.3564	-1184.63
2.35664	-1183.86
2.35687	-1183.09
2.35711	-1182.32
2.35734	-1181.55
2.35758	-1180.78
2.35782	-1180
2.35805	-1179.23
2.35829	-1178.46
2.35852	-1177.69
2.35876	-1176.92
2.359	-1176.15
2.35923	-1175.38
2.35947	-1174.6
2.3597	-1173.83
2.35994	-1173.06
2.36018	-1172.29
2.36041	-1171.52
2.36065	-1170.75
2.36089	-1169.97
2.36112	-1169.2
2.36136	-1168.43
2.36159	-1167.66
2.36183	-1166.89
2.36207	-1166.12
2.3623	-1165.35
2.36254	-1164.57
2.36278	-1163.8
2.36301	-1163.03
2.36325	-1162.26
2.36349	-1161.49
2.36373	-1160.72
2.36396	-1159.95
2.3642	-1159.17
2.36444	-1158.4
2.36467	-1157.63
2.36491	-1156.86
2.36515	-1156.09
2.36539	-1155.32
2.36562	-1154.55
2.36586	-1153.77
2.3661	-1153
2.36634	-1152.23
2.36657	-1151.46
2.36681	-1150.69
2.36705	-1149.92
2.36729	-1149.15
2.36752	-1148.37
2.36776	-1147.6
2.368	-1146.83
2.36824	-1146.06
2.36848	-1145.29
2.36871	-1144.52
2.36895	-1143.75
2.36919	-1142.97
2.36943	-1142.2
2.36967	-1141.43
2.3699	-1140.66
2.37014	-1139.89
2.37038	-1139.12
2.37062	-1138.35
2.37086	-1137.57
2.3711	-1136.8
2.37134	-1136.03
2.37157	-1135.26
2.37181	-1134.49
2.37205	-1133.72
2.37229	-1132.95
2.37253	-1132.17
2.37277	-1131.4
2.37301	-1130.63
2.37325	-1129.86
2.37348	-1129.09
2.37372	-1128.32
2.37396	-1127.55
2.3742	-1126.77
2.37444	-1126
2.37468	-1125.23
2.37492	-1124.46
2.37516	-1123.69
2.3754	-1122.92
2.37564	-1122.15
2.37588	-1121.37
2.37612	-1120.6
2.37636	-1119.83
2.3766	-1119.06
2.37684	-1118.29
2.37708	-1117.52
2.37732	-1116.74
2.37756	-1115.97
2.3778	-1115.2
2.37804	-1114.43
2.37828	-1113.66
2.37852	-1112.89
2.37876	-1112.12
2.379	-1111.34
2.37924	-1110.57
2.37948	-1109.8
2.37972	-1109.03
2.37996	-1108.26
2.3802	-1107.49
2.38044	-1106.72
2.38068	-1105.94
2.38092	-1105.17
2.38116	-1104.4
2.3814	-1103.63
2.38164	-1102.86
2.38188	-1102.09
2.38212	-1101.32
2.38236	-1100.54
2.3826	-1099.77
2.38284	-1099
2.38309	-1098.23
2.38333	-1097.46
2.38357	-1096.69
2.38381	-1095.92
2.38405	-1095.14
2.38429	-1094.37
2.38453	-1093.6
2.38477	-1092.83
2.38502	-1092.06
2.38526	-1091.29
2.3855	-1090.52
2.38574	-1089.74
2.38598	-1088.97
2.38622	-1088.2
2.38647	-1087.43
2.38671	-1086.66
2.38695	-1085.89
2.38719	-1085.12
2.38743	-1084.34
2.38767	-1083.57
2.38792	-1082.8
2.38816	-1082.03
2.3884	-1081.26
2.38864	-1080.49
2.38889	-1079.72
2.38913	-1078.94
2.38937	-1078.17
2.38961	-1077.4
2.38986	-1076.63
2.3901	-1075.86
2.39034	-1075.09
2.39058	-1074.32
2.39083	-1073.54
2.39107	-1072.77
2.39131	-1072
2.39155	-1071.23
2.3918	-1070.46
2.39204	-1069.69
2.39228	-1068.92
2.39253	-1068.14
2.39277	-1067.37
2.39301	-1066.6
2.39325	-1065.83
2.3935	-1065.06
2.39374	-1064.29
2.39398	-1063.51
2.39423	-1062.74
2.39447	-1061.97
2.39471	-1061.2
2.39496	-1060.43
2.3952	-1059.66
2.39545	-1058.89
2.39569	-1058.11
2.39593	-1057.34
2.39618	-1056.57
2.39642	-1055.8
2.39666	-1055.03
2.39691	-1054.26
2.39715	-1053.49
2.3974	-1052.71
2.39764	-1051.94
2.39788	-1051.17
2.39813	-1050.4
2.39837	-1049.63
2.39862	-1048.86
2.39886	-1048.09
2.39911	-1047.31
2.39935	-1046.54
2.39959	-1045.77
2.39984	-1045
