#Acq. time (s)=	30
#Accumulations=	2
#Range (eV)=	2...1
#Windows=	9
#Auto scanning=	Off
#Autofocus=	Off
#Macrospot=	Off
#AutoExposure=	Off
#Spike filter=	Multiple accum.
#Delay time (s)=	0
#Binning=	1
#Readout mode=	Signal
#DeNoise=	Off
#ICS correction=	Off
#Dark correction=	Off
#Inst. Process=	Off
#Detector temperature (°C)=	-89.82
#Instrument=	LabRAM HR Evol
#Detector=	Synapse/Water Cooled
#Objective=	x100_VIS
#Grating=	600 (500nm)
#ND Filter=	25%
#Laser=	488 nm ULF
#Hole=	49.98
#Range=	Visible
#StageXY=	Marzhauser
#StageZ=	Marzhauser
#X (µm)=	155.55
#Y (µm)=	-104.85
#Z (µm)=	-6.2
#Full time(mm:ss)=	10:09
#Project=	InSe
#Sample=	MBE2-200307B-MH
#Site=	
#Title=	03-center_PL_MBE2-200307B-MH_19_47_08_2020_05_13_488 nm ULF_600 (500nm)_25%
#Remark=	
#Date=	13.05.2020 19:48
#Acquired=	13.05.2020 19:48:06
1.30001	-993.52
1.30008	-1002.04
1.30015	-1002.56
1.30021	-995.08
1.30028	-1007.6
1.30035	-1001.12
1.30042	-995.639
1.30049	-1001.16
1.30056	-998.679
1.30062	-995.199
1.30069	-996.719
1.30076	-995.239
1.30083	-997.759
1.3009	-990.279
1.30097	-998.798
1.30104	-999.318
1.3011	-988.838
1.30117	-1000.36
1.30124	-993.878
1.30131	-988.398
1.30138	-998.918
1.30145	-989.438
1.30152	-999.958
1.30158	-989.478
1.30165	-995.997
1.30172	-995.517
1.30179	-995.037
1.30186	-993.557
1.30193	-994.077
1.302	-991.597
1.30206	-994.117
1.30213	-987.637
1.3022	-983.157
1.30227	-990.677
1.30234	-989.196
1.30241	-989.716
1.30248	-998.236
1.30255	-977.756
1.30261	-986.276
1.30268	-990.796
1.30275	-996.316
1.30282	-987.836
1.30289	-989.356
1.30296	-980.876
1.30303	-996.395
1.3031	-988.915
1.30316	-980.435
1.30323	-989.955
1.3033	-987.475
1.30337	-983.995
1.30344	-985.515
1.30351	-978.035
1.30358	-983.555
1.30365	-981.075
1.30371	-987.594
1.30378	-991.114
1.30385	-982.634
1.30392	-975.154
1.30399	-981.674
1.30406	-983.194
1.30413	-975.714
1.3042	-984.234
1.30427	-980.754
1.30433	-979.274
1.3044	-980.793
1.30447	-984.313
1.30454	-983.833
1.30461	-973.353
1.30468	-985.873
1.30475	-982.393
1.30482	-982.913
1.30489	-980.433
1.30496	-979.953
1.30502	-981.473
1.30509	-975.992
1.30516	-975.512
1.30523	-975.032
1.3053	-979.552
1.30537	-980.072
1.30544	-978.592
1.30551	-976.112
1.30558	-985.632
1.30565	-970.152
1.30571	-975.672
1.30578	-978.191
1.30585	-979.711
1.30592	-971.231
1.30599	-978.751
1.30606	-980.271
1.30613	-964.791
1.3062	-964.311
1.30627	-979.831
1.30634	-977.351
1.30641	-973.87
1.30648	-974.39
1.30654	-966.91
1.30661	-973.43
1.30668	-970.95
1.30675	-965.47
1.30682	-969.99
1.30689	-974.51
1.30696	-977.03
1.30703	-968.55
1.3071	-970.069
1.30717	-964.589
1.30724	-959.109
1.30731	-970.629
1.30738	-972.149
1.30744	-965.669
1.30751	-967.189
1.30758	-968.709
1.30765	-964.229
1.30772	-963.749
1.30779	-964.268
1.30786	-967.788
1.30793	-966.308
1.308	-968.828
1.30807	-967.348
1.30814	-970.868
1.30821	-957.388
1.30828	-963.908
1.30835	-963.428
1.30842	-961.948
1.30849	-963.467
1.30855	-964.987
1.30862	-958.507
1.30869	-968.027
1.30876	-969.547
1.30883	-965.067
1.3089	-960.587
1.30897	-958.107
1.30904	-960.627
1.30911	-966.147
1.30918	-951.666
1.30925	-951.186
1.30932	-959.706
1.30939	-955.226
1.30946	-957.746
1.30953	-967.266
1.3096	-961.786
1.30967	-971.306
1.30974	-957.826
1.30981	-957.346
1.30988	-966.865
1.30995	-955.385
1.31001	-964.905
1.31008	-960.425
1.31015	-964.945
1.31022	-969.465
1.31029	-955.985
1.31036	-950.505
1.31043	-950.025
1.3105	-959.545
1.31057	-962.064
1.31064	-951.584
1.31071	-954.104
1.31078	-953.624
1.31085	-959.144
1.31092	-954.664
1.31099	-951.184
1.31106	-963.704
1.31113	-945.224
1.3112	-955.744
1.31127	-966.263
1.31134	-955.783
1.31141	-948.303
1.31148	-952.823
1.31155	-950.343
1.31162	-952.863
1.31169	-949.383
1.31176	-950.903
1.31183	-950.423
1.3119	-953.943
1.31197	-948.462
1.31204	-951.982
1.31211	-951.502
1.31218	-951.022
1.31225	-948.542
1.31232	-951.062
1.31239	-946.582
1.31246	-941.102
1.31253	-948.622
1.3126	-948.141
1.31267	-954.661
1.31274	-945.181
1.31281	-945.701
1.31288	-944.221
1.31295	-941.741
1.31302	-951.261
1.31309	-945.781
1.31316	-942.301
1.31323	-944.821
1.3133	-944.341
1.31337	-942.86
1.31344	-947.38
1.31351	-938.9
1.31358	-945.42
1.31365	-945.94
1.31372	-943.46
1.31379	-937.98
1.31386	-938.5
1.31393	-943.02
1.314	-939.539
1.31407	-936.059
1.31414	-945.579
1.31421	-931.099
1.31428	-944.619
1.31435	-943.139
1.31442	-940.659
1.31449	-924.179
1.31456	-936.699
1.31463	-937.219
1.3147	-927.738
1.31477	-928.258
1.31484	-936.778
1.31491	-941.298
1.31498	-932.818
1.31505	-930.338
1.31512	-938.858
1.31519	-919.378
1.31526	-929.898
1.31533	-928.418
1.3154	-935.937
1.31547	-933.457
1.31554	-936.977
1.31561	-934.497
1.31568	-932.017
1.31575	-924.537
1.31582	-925.057
1.31589	-924.577
1.31596	-933.097
1.31603	-932.617
1.3161	-923.136
1.31617	-929.656
1.31624	-930.176
1.31631	-925.696
1.31638	-928.216
1.31645	-930.736
1.31652	-923.256
1.3166	-923.776
1.31667	-922.296
1.31674	-927.816
1.31681	-925.335
1.31688	-922.855
1.31695	-927.375
1.31702	-926.895
1.31709	-926.415
1.31716	-925.935
1.31723	-925.455
1.3173	-921.975
1.31737	-923.495
1.31744	-924.015
1.31751	-914.534
1.31758	-921.054
1.31765	-922.574
1.31772	-922.094
1.31779	-920.614
1.31786	-919.134
1.31793	-920.654
1.318	-920.174
1.31808	-916.694
1.31815	-919.214
1.31822	-914.733
1.31829	-918.253
1.31836	-913.773
1.31843	-917.293
1.3185	-916.813
1.31857	-916.333
1.31864	-915.853
1.31871	-915.373
1.31878	-909.893
1.31885	-909.412
1.31892	-913.932
1.31899	-913.452
1.31906	-906.972
1.31913	-912.492
1.31921	-912.012
1.31928	-911.532
1.31935	-911.052
1.31942	-910.572
1.31949	-910.092
1.31956	-909.612
1.31963	-909.131
1.3197	-908.651
1.31977	-908.171
1.31984	-907.691
1.31991	-907.211
1.31998	-906.731
1.32005	-906.251
1.32013	-898.771
1.3202	-905.291
1.32027	-904.81
1.32034	-904.33
1.32041	-901.85
1.32048	-897.37
1.32055	-901.89
1.32062	-902.41
1.32069	-901.93
1.32076	-901.45
1.32083	-900.97
1.3209	-900.49
1.32098	-899.009
1.32105	-899.529
1.32112	-899.049
1.32119	-898.569
1.32126	-898.089
1.32133	-897.609
1.3214	-887.129
1.32147	-896.649
1.32154	-896.169
1.32161	-895.689
1.32169	-895.208
1.32176	-894.728
1.32183	-890.248
1.3219	-893.768
1.32197	-893.288
1.32204	-879.808
1.32211	-889.328
1.32218	-885.848
1.32225	-885.368
1.32232	-890.888
1.3224	-890.407
1.32247	-889.927
1.32254	-884.447
1.32261	-885.967
1.32268	-888.487
1.32275	-888.007
1.32282	-887.527
1.32289	-884.047
1.32297	-886.567
1.32304	-886.087
1.32311	-885.606
1.32318	-885.126
1.32325	-883.646
1.32332	-881.166
1.32339	-882.686
1.32346	-883.206
1.32353	-879.726
1.32361	-882.246
1.32368	-880.766
1.32375	-881.286
1.32382	-880.805
1.32389	-872.325
1.32396	-879.845
1.32403	-879.365
1.3241	-878.885
1.32418	-876.405
1.32425	-877.925
1.32432	-877.445
1.32439	-876.965
1.32446	-876.484
1.32453	-876.004
1.3246	-875.524
1.32468	-875.044
1.32475	-874.564
1.32482	-874.084
1.32489	-873.604
1.32496	-873.124
1.32503	-872.644
1.3251	-872.164
1.32518	-871.684
1.32525	-871.203
1.32532	-870.723
1.32539	-870.243
1.32546	-869.763
1.32553	-869.283
1.3256	-868.803
1.32568	-868.323
1.32575	-867.843
1.32582	-867.363
1.32589	-866.883
1.32596	-866.402
1.32603	-865.922
1.3261	-865.442
1.32618	-864.962
1.32625	-864.482
1.32632	-864.002
1.32639	-863.522
1.32646	-863.042
1.32653	-862.562
1.32661	-862.081
1.32668	-861.601
1.32675	-861.121
1.32682	-860.641
1.32689	-860.161
1.32696	-859.681
1.32704	-859.201
1.32711	-858.721
1.32718	-858.241
1.32725	-857.761
1.32732	-857.28
1.32739	-856.8
1.32747	-856.32
1.32754	-855.84
1.32761	-855.36
1.32768	-852.88
1.32775	-854.4
1.32782	-853.92
1.3279	-852.44
1.32797	-851.96
1.32804	-852.479
1.32811	-851.999
1.32818	-851.519
1.32825	-851.039
1.32833	-850.559
1.3284	-850.079
1.32847	-849.599
1.32854	-849.119
1.32861	-848.639
1.32869	-848.159
1.32876	-847.678
1.32883	-847.198
1.3289	-846.718
1.32897	-846.238
1.32904	-845.758
1.32912	-845.278
1.32919	-844.798
1.32926	-844.318
1.32933	-843.838
1.3294	-843.358
1.32948	-842.877
1.32955	-842.397
1.32962	-841.917
1.32969	-841.437
1.32976	-840.957
1.32984	-840.477
1.32991	-839.997
1.32998	-839.517
1.33005	-839.037
1.33012	-838.557
1.3302	-838.076
1.33027	-837.596
1.33034	-837.116
1.33041	-836.636
1.33048	-836.156
1.33056	-835.676
1.33063	-835.196
1.3307	-834.716
1.33077	-834.236
1.33084	-833.755
1.33092	-833.275
1.33099	-832.795
1.33106	-832.315
1.33113	-831.835
1.33121	-831.355
1.33128	-830.875
1.33135	-830.395
1.33142	-829.915
1.33149	-829.435
1.33157	-828.955
1.33164	-828.474
1.33171	-827.994
1.33178	-827.514
1.33185	-827.034
1.33193	-826.554
1.332	-826.074
1.33207	-825.594
1.33214	-825.114
1.33222	-824.634
1.33229	-824.154
1.33236	-823.673
1.33243	-823.193
1.33251	-822.713
1.33258	-822.233
1.33265	-821.753
1.33272	-821.273
1.33279	-820.793
1.33287	-820.313
1.33294	-819.833
1.33301	-819.352
1.33308	-818.872
1.33316	-818.392
1.33323	-817.912
1.3333	-817.432
1.33337	-816.952
1.33345	-816.472
1.33352	-815.992
1.33359	-815.512
1.33366	-815.032
1.33374	-814.552
1.33381	-814.071
1.33388	-813.591
1.33395	-813.111
1.33403	-812.631
1.3341	-812.151
1.33417	-811.671
1.33424	-811.191
1.33432	-810.711
1.33439	-810.231
1.33446	-809.75
1.33453	-809.27
1.33461	-808.79
1.33468	-808.31
1.33475	-807.83
1.33482	-807.35
1.3349	-806.87
1.33497	-806.39
1.33504	-805.91
1.33511	-805.43
1.33519	-804.949
1.33526	-804.469
1.33533	-803.989
1.3354	-803.509
1.33548	-803.029
1.33555	-802.549
1.33562	-802.069
1.3357	-801.589
1.33577	-801.109
1.33584	-800.629
1.33591	-800.148
1.33599	-799.668
1.33606	-799.188
1.33613	-798.708
1.3362	-798.228
1.33628	-797.748
1.33635	-797.268
1.33642	-796.788
1.3365	-796.308
1.33657	-795.828
1.33664	-795.347
1.33671	-794.867
1.33679	-794.387
1.33686	-793.907
1.33693	-793.427
1.33701	-792.947
1.33708	-792.467
1.33715	-791.987
1.33722	-791.507
1.3373	-791.027
1.33737	-790.546
1.33744	-790.066
1.33752	-789.586
1.33759	-789.106
1.33765	-785.789
1.33772	-782.174
1.33779	-778.944
1.33786	-779.149
1.33794	-780.389
1.33801	-784.514
1.33808	-796.025
1.33815	-801.57
1.33823	-816.801
1.3383	-821.917
1.33837	-837.342
1.33844	-850.788
1.33852	-854.233
1.33859	-869.679
1.33866	-874.124
1.33873	-884.57
1.33881	-890.016
1.33888	-899.461
1.33895	-912.907
1.33902	-926.352
1.3391	-919.798
1.33917	-927.243
1.33924	-943.689
1.33931	-946.135
1.33939	-959.58
1.33946	-963.026
1.33953	-974.471
1.33961	-984.917
1.33968	-990.362
1.33975	-990.808
1.33982	-998.254
1.3399	-1010.7
1.33997	-1021.14
1.34004	-1022.59
1.34011	-1023.04
1.34019	-1040.48
1.34026	-1036.93
1.34033	-1044.37
1.34041	-1052.82
1.34048	-1057.26
1.34055	-1068.71
1.34062	-1063.15
1.3407	-1084.6
1.34077	-1077.05
1.34084	-1089.49
1.34091	-1090.94
1.34099	-1094.38
1.34106	-1105.83
1.34113	-1107.27
1.34121	-1119.72
1.34128	-1129.16
1.34135	-1130.61
1.34142	-1133.06
1.3415	-1147.5
1.34157	-1147.95
1.34164	-1147.39
1.34172	-1156.84
1.34179	-1153.28
1.34186	-1160.73
1.34194	-1158.17
1.34201	-1166.62
1.34208	-1181.07
1.34215	-1173.51
1.34223	-1186.96
1.3423	-1188.4
1.34237	-1192.85
1.34245	-1197.29
1.34252	-1204.74
1.34259	-1206.19
1.34267	-1203.63
1.34274	-1215.08
1.34281	-1216.52
1.34288	-1219.97
1.34296	-1221.41
1.34303	-1223.86
1.3431	-1229.3
1.34318	-1237.75
1.34325	-1227.2
1.34332	-1238.64
1.3434	-1233.09
1.34347	-1243.53
1.34354	-1256.98
1.34362	-1254.42
1.34369	-1251.87
1.34376	-1259.31
1.34384	-1260.76
1.34391	-1268.21
1.34398	-1265.65
1.34406	-1258.1
1.34413	-1266.54
1.3442	-1278.99
1.34427	-1275.43
1.34435	-1279.88
1.34442	-1276.32
1.34449	-1282.77
1.34457	-1288.22
1.34464	-1291.66
1.34471	-1288.11
1.34479	-1297.55
1.34486	-1298
1.34493	-1301.44
1.34501	-1312.89
1.34508	-1295.33
1.34515	-1307.78
1.34523	-1302.23
1.3453	-1305.67
1.34537	-1315.12
1.34545	-1314.56
1.34552	-1321.01
1.3456	-1314.45
1.34567	-1325.9
1.34574	-1317.34
1.34582	-1329.79
1.34589	-1322.24
1.34596	-1335.68
1.34604	-1319.13
1.34611	-1343.57
1.34618	-1339.02
1.34626	-1336.46
1.34633	-1341.91
1.3464	-1331.35
1.34648	-1329.8
1.34655	-1331.25
1.34662	-1348.69
1.3467	-1343.14
1.34677	-1348.58
1.34684	-1340.03
1.34692	-1340.47
1.34699	-1356.92
1.34706	-1338.36
1.34714	-1338.81
1.34721	-1354.26
1.34729	-1351.7
1.34736	-1355.15
1.34743	-1353.59
1.34751	-1342.04
1.34758	-1352.48
1.34765	-1357.93
1.34773	-1358.37
1.3478	-1348.82
1.34788	-1357.27
1.34795	-1351.71
1.34802	-1365.16
1.3481	-1368.6
1.34817	-1359.05
1.34824	-1363.49
1.34832	-1358.94
1.34839	-1365.38
1.34846	-1366.83
1.34854	-1371.28
1.34861	-1358.72
1.34869	-1351.17
1.34876	-1366.61
1.34883	-1366.06
1.34891	-1375.5
1.34898	-1373.95
1.34906	-1374.39
1.34913	-1364.84
1.3492	-1364.29
1.34928	-1375.73
1.34935	-1368.18
1.34942	-1367.62
1.3495	-1371.07
1.34957	-1373.51
1.34965	-1371.96
1.34972	-1373.41
1.34979	-1371.85
1.34987	-1391.3
1.34994	-1376.74
1.35002	-1366.19
1.35009	-1376.63
1.35016	-1371.08
1.35024	-1374.52
1.35031	-1368.97
1.35039	-1377.42
1.35046	-1378.86
1.35053	-1385.31
1.35061	-1382.75
1.35068	-1380.2
1.35076	-1384.64
1.35083	-1377.09
1.3509	-1366.53
1.35098	-1385.98
1.35105	-1383.43
1.35113	-1367.87
1.3512	-1367.32
1.35127	-1384.76
1.35135	-1383.21
1.35142	-1388.65
1.3515	-1377.1
1.35157	-1369.54
1.35165	-1384.99
1.35172	-1378.44
1.35179	-1376.88
1.35187	-1381.33
1.35194	-1375.77
1.35202	-1376.22
1.35209	-1386.66
1.35216	-1377.11
1.35224	-1370.55
1.35231	-1377
1.35239	-1376.45
1.35246	-1371.89
1.35254	-1373.34
1.35261	-1374.78
1.35268	-1378.23
1.35276	-1362.67
1.35283	-1372.12
1.35291	-1370.56
1.35298	-1377.01
1.35306	-1370.46
1.35313	-1367.9
1.35321	-1374.35
1.35328	-1358.79
1.35335	-1374.24
1.35343	-1366.68
1.3535	-1372.13
1.35358	-1360.57
1.35365	-1378.02
1.35373	-1361.47
1.3538	-1373.91
1.35387	-1366.36
1.35395	-1371.8
1.35402	-1366.25
1.3541	-1363.69
1.35417	-1356.14
1.35425	-1354.58
1.35432	-1360.03
1.3544	-1359.48
1.35447	-1359.92
1.35454	-1347.37
1.35462	-1353.81
1.35469	-1349.26
1.35477	-1352.7
1.35484	-1357.15
1.35492	-1359.59
1.35499	-1350.04
1.35507	-1339.49
1.35514	-1358.93
1.35522	-1336.38
1.35529	-1351.82
1.35537	-1342.27
1.35544	-1355.71
1.35551	-1335.16
1.35559	-1345.6
1.35566	-1339.05
1.35574	-1343.5
1.35581	-1354.94
1.35589	-1343.39
1.35596	-1347.83
1.35604	-1343.28
1.35611	-1335.72
1.35619	-1341.17
1.35626	-1344.61
1.35634	-1334.06
1.35641	-1330.51
1.35649	-1331.95
1.35656	-1333.4
1.35664	-1340.84
1.35671	-1341.29
1.35678	-1335.73
1.35686	-1331.18
1.35693	-1335.63
1.35701	-1328.07
1.35708	-1333.52
1.35716	-1325.96
1.35723	-1332.41
1.35731	-1325.85
1.35738	-1316.3
1.35746	-1311.74
1.35753	-1327.19
1.35761	-1316.64
1.35768	-1321.08
1.35776	-1307.53
1.35783	-1303.97
1.35791	-1321.42
1.35798	-1318.86
1.35806	-1313.31
1.35813	-1315.75
1.35821	-1307.2
1.35828	-1323.65
1.35836	-1306.09
1.35843	-1314.54
1.35851	-1298.98
1.35858	-1293.43
1.35866	-1309.87
1.35873	-1305.32
1.35881	-1291.76
1.35888	-1315.21
1.35896	-1300.66
1.35903	-1302.1
1.35911	-1305.55
1.35918	-1292.99
1.35926	-1296.44
1.35933	-1299.88
1.35941	-1293.33
1.35948	-1299.77
1.35956	-1282.22
1.35963	-1278.67
1.35971	-1291.11
1.35978	-1291.56
1.35986	-1286
1.35993	-1282.45
1.36001	-1293.89
1.36008	-1293.34
1.36016	-1276.78
1.36024	-1283.23
1.36031	-1268.68
1.36039	-1273.12
1.36046	-1275.57
1.36054	-1260.01
1.36061	-1270.46
1.36069	-1272.9
1.36076	-1270.35
1.36084	-1280.79
1.36091	-1280.24
1.36099	-1271.69
1.36106	-1280.13
1.36114	-1279.58
1.36121	-1266.02
1.36129	-1263.47
1.36136	-1264.91
1.36144	-1270.36
1.36152	-1259.8
1.36159	-1261.25
1.36167	-1253.7
1.36174	-1258.14
1.36182	-1255.59
1.36189	-1253.03
1.36197	-1263.48
1.36204	-1245.92
1.36212	-1251.37
1.36219	-1248.81
1.36227	-1247.26
1.36235	-1241.71
1.36242	-1244.15
1.3625	-1240.6
1.36257	-1238.04
1.36265	-1237.49
1.36272	-1241.93
1.3628	-1226.38
1.36287	-1228.82
1.36295	-1240.27
1.36303	-1236.72
1.3631	-1230.16
1.36318	-1218.61
1.36325	-1238.05
1.36333	-1241.5
1.3634	-1225.94
1.36348	-1227.39
1.36355	-1220.84
1.36363	-1212.28
1.36371	-1218.73
1.36378	-1213.17
1.36386	-1203.62
1.36393	-1209.06
1.36401	-1220.51
1.36408	-1218.95
1.36416	-1212.4
1.36424	-1190.85
1.36431	-1197.29
1.36439	-1209.74
1.36446	-1213.18
1.36454	-1203.63
1.36461	-1202.07
1.36469	-1189.52
1.36477	-1208.96
1.36484	-1187.41
1.36492	-1204.86
1.36499	-1188.3
1.36507	-1189.75
1.36514	-1199.19
1.36522	-1176.64
1.3653	-1178.08
1.36537	-1185.53
1.36545	-1178.97
1.36552	-1178.42
1.3656	-1171.87
1.36568	-1182.31
1.36575	-1189.76
1.36583	-1176.2
1.3659	-1155.65
1.36598	-1154.09
1.36606	-1176.54
1.36613	-1142.98
1.36621	-1159.43
1.36628	-1168.88
1.36636	-1160.32
1.36644	-1150.77
1.36651	-1160.21
1.36659	-1162.66
1.36666	-1152.1
1.36674	-1160.55
1.36682	-1148.99
1.36689	-1147.44
1.36697	-1154.89
1.36704	-1144.33
1.36712	-1140.78
1.3672	-1143.22
1.36727	-1130.67
1.36735	-1150.11
1.36742	-1125.56
1.3675	-1158
1.36758	-1110.45
1.36765	-1149.9
1.36773	-1112.34
1.36781	-1111.79
1.36788	-1131.23
1.36796	-1127.68
1.36803	-1127.12
1.36811	-1108.57
1.36819	-1105.01
1.36826	-1131.46
1.36834	-1126.91
1.36841	-1104.35
1.36849	-1118.8
1.36857	-1097.24
1.36864	-1106.69
1.36872	-1098.13
1.3688	-1119.58
1.36887	-1105.02
1.36895	-1100.47
1.36902	-1091.92
1.3691	-1098.36
1.36918	-1086.81
1.36925	-1090.25
1.36933	-1083.7
1.36941	-1065.14
1.36948	-1102.59
1.36956	-1065.03
1.36964	-1101.48
1.36971	-1076.93
1.36979	-1069.37
1.36987	-1067.82
1.36994	-1081.26
1.37002	-1064.71
1.37009	-1051.15
1.37017	-1078.6
1.37025	-1055.04
1.37032	-1060.49
1.3704	-1033.94
1.37048	-1066.38
1.37055	-1043.83
1.37063	-1057.27
1.37071	-1057.72
1.37078	-1065.16
1.37086	-1051.61
1.37094	-1053.06
1.37101	-1035.5
1.37109	-1026.95
1.37117	-1033.39
1.37124	-1032.84
1.37132	-1055.28
1.3714	-1019.73
1.37147	-1029.17
1.37155	-1025.62
1.37163	-1040.07
1.3717	-1017.51
1.37178	-1021.96
1.37186	-998.402
1.37193	-1028.85
1.37201	-1009.29
1.37209	-1027.74
1.37216	-1015.18
1.37224	-1023.63
1.37232	-1020.08
1.37239	-1022.52
1.37247	-1013.97
1.37255	-994.412
1.37262	-1002.86
1.3727	-974.303
1.37278	-1022.75
1.37285	-960.194
1.37293	-995.64
1.37301	-991.085
1.37308	-998.531
1.37316	-977.976
1.37324	-995.422
1.37331	-964.868
1.37339	-970.313
1.37347	-979.759
1.37354	-962.204
1.37362	-990.65
1.3737	-965.096
1.37378	-977.541
1.37385	-922.987
1.37393	-961.432
1.37401	-961.878
1.37408	-965.323
1.37416	-945.769
1.37424	-951.214
1.37431	-921.66
1.37439	-916.106
1.37447	-921.551
1.37454	-951.997
1.37462	-927.442
1.3747	-923.888
1.37478	-907.333
1.37485	-936.779
1.37493	-931.225
1.37501	-914.67
1.37508	-929.116
1.37516	-887.561
1.37524	-915.007
1.37532	-897.452
1.37539	-902.898
1.37547	-875.344
1.37555	-910.789
1.37562	-873.235
1.3757	-907.68
1.37578	-889.126
1.37586	-893.571
1.37593	-875.017
1.37601	-884.462
1.37609	-879.908
1.37616	-886.354
1.37624	-866.799
1.37632	-866.245
1.3764	-876.69
1.37647	-855.136
1.37655	-880.581
1.37663	-841.027
1.3767	-868.473
1.37678	-845.918
1.37686	-858.364
1.37694	-818.809
1.37701	-845.255
1.37709	-830.7
1.37717	-858.146
1.37725	-831.592
1.37732	-841.037
1.3774	-817.483
1.37748	-831.928
1.37756	-828.374
1.37763	-814.819
1.37771	-813.265
1.37779	-784.711
1.37787	-824.156
1.37794	-781.602
1.37802	-825.047
1.3781	-754.493
1.37817	-772.938
1.37825	-756.384
1.37833	-790.267
1.37841	-774.15
1.37848	-763.032
1.37856	-780.915
1.37864	-800.798
1.37872	-786.681
1.37879	-785.564
1.37887	-782.447
1.37895	-765.33
1.37903	-749.212
1.37911	-767.095
1.37918	-745.978
1.37926	-744.861
1.37934	-779.744
1.37942	-718.627
1.37949	-778.509
1.37957	-723.392
1.37965	-777.275
1.37973	-748.158
1.3798	-759.041
1.37988	-730.924
1.37996	-742.807
1.38004	-713.689
1.38011	-695.572
1.38019	-711.455
1.38027	-712.338
1.38035	-714.221
1.38043	-722.104
1.3805	-747.986
1.38058	-712.869
1.38066	-731.752
1.38074	-688.635
1.38081	-700.518
1.38089	-690.401
1.38097	-718.283
1.38105	-656.166
1.38113	-715.049
1.3812	-677.932
1.38128	-690.815
1.38136	-661.698
1.38144	-713.581
1.38151	-627.463
1.38159	-661.346
1.38167	-638.229
1.38175	-644.112
1.38183	-612.995
1.3819	-623.878
1.38198	-657.76
1.38206	-608.643
1.38214	-643.526
1.38222	-608.409
1.38229	-645.292
1.38237	-579.175
1.38245	-651.057
1.38253	-584.94
1.38261	-627.823
1.38268	-578.706
1.38276	-612.589
1.38284	-562.472
1.38292	-588.355
1.383	-538.237
1.38307	-594.12
1.38315	-574.003
1.38323	-579.886
1.38331	-589.769
1.38339	-552.652
1.38346	-525.534
1.38354	-573.417
1.38362	-567.3
1.3837	-585.183
1.38378	-544.066
1.38386	-512.949
1.38393	-511.831
1.38401	-504.714
1.38409	-554.597
1.38417	-519.48
1.38425	-525.363
1.38432	-489.246
1.3844	-516.129
1.38448	-487.011
1.38456	-528.894
1.38464	-480.777
1.38472	-500.66
1.38479	-439.543
1.38487	-488.426
1.38495	-431.308
1.38503	-431.191
1.38511	-413.074
1.38519	-421.957
1.38526	-441.84
1.38534	-459.723
1.38542	-391.606
1.3855	-436.488
1.38558	-420.371
1.38566	-389.254
1.38573	-406.137
1.38581	-346.02
1.38589	-362.903
1.38597	-347.785
1.38605	-388.668
1.38613	-311.551
1.38621	-366.434
1.38628	-318.317
1.38636	-306.2
1.38644	-299.082
1.38652	-260.965
1.3866	-274.848
1.38668	-308.731
1.38675	-211.614
1.38683	-281.497
1.38691	-239.38
1.38699	-205.262
1.38707	-210.145
1.38715	-249.028
1.38723	-197.911
1.38731	-197.794
1.38738	-217.677
1.38746	-183.559
1.38754	-192.442
1.38762	-157.325
1.3877	-170.208
1.38778	-157.091
1.38786	-150.974
1.38793	-106.857
1.38801	-159.739
1.38809	-118.622
1.38817	-143.505
1.38825	-101.388
1.38833	-131.271
1.38841	-89.1536
1.38849	-112.036
1.38856	-58.9193
1.38864	-75.8021
1.38872	-54.6849
1.3888	-32.5678
1.38888	-25.4506
1.38896	-29.3335
1.38904	11.7837
1.38912	-64.0992
1.38919	-32.982
1.38927	5.13515
1.38935	11.2523
1.38943	37.3695
1.38951	94.4866
1.38959	59.6038
1.38967	74.7209
1.38975	69.8381
1.38983	121.955
1.3899	136.072
1.38998	154.19
1.39006	170.307
1.39014	180.424
1.39022	142.541
1.3903	220.658
1.39038	210.775
1.39046	198.893
1.39054	246.01
1.39062	290.127
1.39069	289.244
1.39077	310.361
1.39085	311.478
1.39093	334.595
1.39101	369.713
1.39109	350.83
1.39117	377.947
1.39125	386.064
1.39133	421.181
1.39141	387.298
1.39149	463.416
1.39156	349.533
1.39164	448.65
1.39172	412.767
1.3918	454.884
1.39188	467.001
1.39196	581.118
1.39204	507.236
1.39212	575.353
1.3922	515.47
1.39228	579.587
1.39236	531.704
1.39244	676.821
1.39251	561.939
1.39259	575.056
1.39267	653.173
1.39275	640.29
1.39283	632.407
1.39291	702.524
1.39299	614.642
1.39307	696.759
1.39315	719.876
1.39323	695.993
1.39331	759.11
1.39339	793.227
1.39347	797.344
1.39355	727.462
1.39363	905.579
1.3937	789.696
1.39378	936.813
1.39386	827.93
1.39394	944.047
1.39402	868.165
1.3941	1036.28
1.39418	879.399
1.39426	1043.52
1.39434	968.633
1.39442	1146.75
1.3945	957.867
1.39458	1201.98
1.39466	1007.1
1.39474	1290.22
1.39482	1091.34
1.3949	1194.45
1.39498	1132.57
1.39506	1291.69
1.39514	1159.8
1.39522	1340.92
1.3953	1215.04
1.39537	1325.16
1.39545	1245.27
1.39553	1338.39
1.39561	1334.51
1.39569	1420.62
1.39577	1311.74
1.39585	1388.86
1.39593	1388.98
1.39601	1382.09
1.39609	1516.21
1.39617	1450.33
1.39625	1491.44
1.39633	1457.56
1.39641	1633.68
1.39649	1536.8
1.39657	1663.91
1.39665	1552.03
1.39673	1670.15
1.39681	1558.27
1.39689	1807.38
1.39697	1526.5
1.39705	1853.62
1.39713	1614.73
1.39721	1758.85
1.39729	1647.97
1.39737	1909.09
1.39745	1662.2
1.39753	2002.32
1.39761	1762.44
1.39769	2027.55
1.39777	1851.67
1.39785	2132.79
1.39793	1763.91
1.39801	2180.02
1.39809	1835.14
1.39817	2178.26
1.39825	1943.37
1.39833	2171.49
1.39841	1970.61
1.39849	2378.73
1.39857	2077.84
1.39865	2287.96
1.39873	2281.08
1.39881	2441.19
1.39889	2253.31
1.39897	2394.43
1.39905	2399.55
1.39913	2417.66
1.39921	2556.78
1.39929	2608.9
1.39937	2555.01
1.39945	2573.13
1.39953	2649.25
1.39961	2476.37
1.39969	2813.48
1.39977	2665.6
1.39985	2927.72
1.39993	2682.83
1.40001	2924.95
1.40009	2674.07
1.40017	3125.19
1.40025	2741.3
1.40033	3080.42
1.40041	2852.54
1.40049	3150.65
1.40057	2833.77
1.40065	3376.89
1.40073	2851.01
1.40081	3304.12
1.40089	2941.24
1.40097	3298.36
1.40105	3001.47
1.40113	3545.59
1.40121	3039.71
1.40129	3519.83
1.40137	3118.94
1.40146	3515.06
1.40154	3179.18
1.40162	3745.29
1.4017	3195.41
1.40178	3706.53
1.40186	3250.65
1.40194	3792.76
1.40202	3436.88
1.4021	3861
1.40218	3503.11
1.40226	3904.23
1.40234	3708.35
1.40242	3951.47
1.4025	3776.58
1.40258	4142.7
1.40266	3763.82
1.40274	4066.93
1.40282	3996.05
1.4029	4178.17
1.40298	4004.29
1.40307	4280.4
1.40315	4098.52
1.40323	4191.64
1.40331	4360.75
1.40339	4343.87
1.40347	4495.99
1.40355	4519.11
1.40363	4516.22
1.40371	4447.34
1.40379	4741.46
1.40387	4583.57
1.40395	5055.69
1.40403	4683.81
1.40411	4919.93
1.40419	4711.04
1.40428	5388.16
1.40436	4896.28
1.40444	5427.4
1.40452	4975.51
1.4046	5398.63
1.40468	4994.75
1.40476	5671.86
1.40484	5203.98
1.40492	5699.1
1.405	5288.21
1.40508	5846.33
1.40516	5336.45
1.40525	6102.57
1.40533	5500.68
1.40541	6291.8
1.40549	5588.92
1.40557	6189.04
1.40565	5708.15
1.40573	6522.27
1.40581	5704.39
1.40589	6531.5
1.40597	5942.62
1.40605	6603.74
1.40614	5975.85
1.40622	6939.97
1.4063	6163.09
1.40638	6853.21
1.40646	6196.32
1.40654	6981.44
1.40662	6421.56
1.4067	7388.68
1.40678	6588.79
1.40686	7189.91
1.40695	6532.03
1.40703	7395.14
1.40711	6746.26
1.40719	7573.38
1.40727	6877.5
1.40735	7513.61
1.40743	7006.73
1.40751	7755.85
1.40759	7173.96
1.40768	7963.08
1.40776	7266.2
1.40784	8026.32
1.40792	7541.43
1.408	8278.55
1.40808	7698.67
1.40816	8494.78
1.40824	7889.9
1.40833	8370.02
1.40841	7978.14
1.40849	8911.25
1.40857	8329.37
1.40865	8992.49
1.40873	8500.6
1.40881	8951.72
1.40889	8787.84
1.40898	9482.96
1.40906	8984.07
1.40914	9665.19
1.40922	9270.31
1.4093	9700.42
1.40938	9496.54
1.40946	10232.7
1.40955	9622.78
1.40963	10203.9
1.40971	9979.01
1.40979	10331.1
1.40987	10551.2
1.40995	10869.4
1.41003	10559.5
1.41012	10977.6
1.4102	10757.7
1.41028	11116.8
1.41036	11228.9
1.41044	11470.1
1.41052	11324.2
1.41061	11411.3
1.41069	11446.4
1.41077	11835.5
1.41085	11802.7
1.41093	12204.8
1.41101	11715.9
1.41109	12196
1.41118	12391.1
1.41126	12513.2
1.41134	12619.4
1.41142	12845.5
1.4115	12892.6
1.41158	12940.7
1.41167	13295.8
1.41175	13539.9
1.41183	13383.1
1.41191	13639.2
1.41199	13734.3
1.41207	13800.4
1.41216	14207.5
1.41224	14255.6
1.41232	14230.8
1.4124	14492.9
1.41248	14786
1.41257	14819.1
1.41265	15419.2
1.41273	15498.3
1.41281	15326.5
1.41289	15684.6
1.41297	15820.7
1.41306	16051.8
1.41314	16153.9
1.41322	16701
1.4133	16688.2
1.41338	16947.3
1.41347	17424.4
1.41355	17398.5
1.41363	17676.6
1.41371	18232.8
1.41379	18120.9
1.41388	18371
1.41396	19076.1
1.41404	19063.2
1.41412	19287.3
1.41418	19704.3
1.41426	19573.2
1.41434	19951.9
1.41442	20088.7
1.4145	20959.7
1.41459	20585.9
1.41467	21114.4
1.41475	20846.4
1.41483	21644.5
1.41491	21320.7
1.41499	22139.1
1.41508	22217.2
1.41516	22451.2
1.41524	22372
1.41532	23672.7
1.4154	22691.5
1.41548	23653.3
1.41556	23933
1.41565	24675.8
1.41573	24381.5
1.41581	25490.3
1.41589	24985.1
1.41597	25653.8
1.41606	25628.6
1.41614	26255.3
1.41622	26089.1
1.4163	26884.9
1.41638	27002.6
1.41646	27395.4
1.41655	27780.2
1.41663	28247.9
1.41671	27807.7
1.41679	28927.4
1.41687	29028.2
1.41695	28793
1.41704	29896.7
1.41712	30240.5
1.4172	29923.2
1.41728	30430
1.41736	31172.8
1.41745	30645.5
1.41753	31112.3
1.41761	31744
1.41769	32089.8
1.41777	31997.6
1.41786	33394.3
1.41794	32431.1
1.41802	33411.8
1.4181	33818.6
1.41818	34031.4
1.41827	33914.1
1.41835	35555.9
1.41843	34519.7
1.41851	35301.4
1.41859	35553.2
1.41868	36621.9
1.41876	35652.7
1.41884	37691.5
1.41892	36579.2
1.419	37370
1.41909	37188.7
1.41917	39413.5
1.41925	37420.3
1.41933	39487
1.41941	38275.8
1.4195	39467.5
1.41958	39091.3
1.41966	41476.1
1.41974	39158.8
1.41983	40997.6
1.41991	40332.3
1.41999	41704.1
1.42007	40271.9
1.42015	43192.6
1.42024	40533.4
1.42032	42809.1
1.4204	41319.9
1.42048	43824.7
1.42057	41466.4
1.42065	44688.2
1.42073	42045
1.42081	43788.7
1.4209	42365.5
1.42098	45333.2
1.42106	42067
1.42114	45825.8
1.42122	43146.5
1.42131	45399.3
1.42139	42794
1.42147	46819.8
1.42155	43332.6
1.42164	46522.3
1.42172	44181.1
1.4218	46496.8
1.42188	43490.6
1.42197	47823.4
1.42205	44288.1
1.42213	47132.9
1.42221	44707.7
1.4223	47703.4
1.42238	44145.2
1.42246	48786.9
1.42254	45554.7
1.42263	47294.5
1.42271	44994.2
1.42279	48527
1.42287	45213.7
1.42296	48448.5
1.42304	46037.3
1.42312	47530
1.42321	44951.8
1.42329	48737.5
1.42337	46014.3
1.42345	48050.1
1.42354	46216.8
1.42362	47278.6
1.4237	45411.3
1.42378	48085.1
1.42387	46307.9
1.42395	47091.6
1.42403	45916.4
1.42411	47199.1
1.4242	45345.9
1.42428	47380.7
1.42436	46758.4
1.42445	45870.2
1.42453	45442
1.42461	46723.7
1.42469	46053.5
1.42478	45614.2
1.42486	46840
1.42494	45241.8
1.42503	45823.5
1.42511	45857.3
1.42519	46987
1.42527	44950.8
1.42536	46642.6
1.42544	44561.3
1.42552	46238.1
1.42561	44958.8
1.42569	47901.6
1.42577	43959.4
1.42586	46953.1
1.42594	43966.9
1.42602	46871.7
1.4261	43721.4
1.42619	48083.2
1.42627	43143.9
1.42635	47120.7
1.42644	43106.5
1.42652	47930.2
1.4266	42542
1.42669	47920.7
1.42677	42536.5
1.42685	46567.3
1.42694	42518
1.42702	48024.8
1.4271	41966.5
1.42718	47591.3
1.42727	41605.1
1.42735	46108.8
1.42743	41144.6
1.42752	47684.3
1.4276	40906.1
1.42768	45722.9
1.42777	40887.6
1.42785	45720.4
1.42793	40307.1
1.42802	46120.9
1.4281	40559.7
1.42818	44454.4
1.42827	39707.2
1.42835	45516
1.42843	39868.7
1.42852	44954.5
1.4286	40712.2
1.42868	43290
1.42877	39977.8
1.42885	44385.5
1.42893	40743.3
1.42902	42942
1.4291	40747.8
1.42918	42687.6
1.42927	40525.3
1.42935	43266.1
1.42943	41446.8
1.42952	41895.6
1.4296	40982.4
1.42968	42531.1
1.42977	41421.9
1.42985	41218.6
1.42994	42133.4
1.43002	40395.2
1.4301	40966.9
1.43019	40641.7
1.43027	42762.5
1.43035	39320.2
1.43044	42386
1.43052	38763.7
1.4306	41666.5
1.43069	38806.3
1.43077	43234
1.43085	37752.8
1.43094	41584.5
1.43102	37524.3
1.43111	42019.1
1.43119	37281.8
1.43127	42104.6
1.43136	36441.3
1.43144	41065.1
1.43152	36408.9
1.43161	42291.6
1.43169	36266.4
1.43178	41501.1
1.43186	36188.9
1.43194	40174.7
1.43203	35811.4
1.43211	41297.2
1.43219	35961
1.43228	39940.7
1.43236	35991.5
1.43245	39753.2
1.43253	35796
1.43261	39922.8
1.4327	36850.5
1.43278	38497.3
1.43287	36025
1.43295	39052.8
1.43303	37172.6
1.43312	38175.3
1.4332	37285.1
1.43328	37315.8
1.43337	36847.6
1.43345	37523.4
1.43354	38233.1
1.43362	36154.9
1.4337	37670.6
1.43379	36105.4
1.43387	37540.2
1.43396	35905.9
1.43404	38604.7
1.43412	34801.5
1.43421	37638.2
1.43429	34850
1.43438	38239.7
1.43446	34536.5
1.43455	38499.3
1.43463	33973
1.43471	37149.8
1.4348	33502.5
1.43488	38431.3
1.43497	33596.1
1.43505	37056.8
1.43513	33071.6
1.43522	36990.3
1.4353	32882.1
1.43539	37047.9
1.43547	33450.6
1.43556	35728.4
1.43564	33229.1
1.43572	36167.9
1.43581	33524.7
1.43589	35155.4
1.43598	33820.2
1.43606	34430
1.43615	33315.7
1.43623	34745.5
1.43631	34089.2
1.4364	33397
1.43648	34194.8
1.43657	33299.5
1.43665	34336.3
1.43674	33130
1.43682	34597.8
1.43691	32455.6
1.43699	34223.3
1.43707	32436.1
1.43716	34981.8
1.43724	32129.6
1.43733	34895.4
1.43741	31471.1
1.4375	34437.9
1.43758	31227.6
1.43767	35033.4
1.43775	31325.2
1.43783	34121.9
1.43792	31334.7
1.438	34317.5
1.43809	31242.2
1.43817	33693
1.43826	31339.7
1.43834	32960.5
1.43843	31081.3
1.43851	32882
1.4386	31755.8
1.43868	32032.5
1.43877	31548.3
1.43885	31868.1
1.43893	31146.8
1.43902	31490.6
1.4391	32071.3
1.43919	30575.1
1.43927	31225.9
1.43936	30662.6
1.43944	32118.4
1.43953	30059.1
1.43961	32114.9
1.4397	29908.7
1.43978	31200.4
1.43987	29498.2
1.43995	31707
1.44004	29636.7
1.44012	31070.5
1.44021	29629.2
1.44029	31160
1.44038	29231.8
1.44046	31334.5
1.44055	29883.3
1.44063	30268
1.44072	29432.8
1.4408	30883.6
1.44089	29825.3
1.44097	29833.1
1.44106	30003.8
1.44114	30133.6
1.44123	29440.4
1.44131	29767.1
1.4414	30535.9
1.44148	29036.6
1.44157	29520.4
1.44165	29216.2
1.44174	29768.9
1.44182	28816.7
1.44191	30030.5
1.44199	28417.2
1.44208	29052
1.44216	28364.7
1.44225	29966.5
1.44233	28022.3
1.44242	28836
1.4425	28310.8
1.44259	28900.5
1.44267	27919.3
1.44276	28915.1
1.44284	28461.8
1.44293	28063.6
1.44301	27660.3
1.4431	28444.1
1.44318	28035.9
1.44327	27577.6
1.44335	28322.4
1.44344	27789.1
1.44352	28008.9
1.44361	27498.7
1.4437	28258.4
1.44378	27283.2
1.44387	27802.9
1.44395	27710.7
1.44404	27888.5
1.44412	27001.2
1.44421	27697
1.44429	27357.8
1.44438	27234.5
1.44446	26984.3
1.44455	27523
1.44463	27111.8
1.44472	26707.6
1.44481	27252.3
1.44489	27091.1
1.44498	26803.8
1.44506	26936.6
1.44515	27212.4
1.44523	26430.1
1.44532	26575.9
1.4454	26563.6
1.44549	27064.4
1.44558	26085.2
1.44566	26968.9
1.44575	26471.7
1.44583	26193.4
1.44592	26012.2
1.446	26304
1.44609	26342.7
1.44617	25670.5
1.44626	26243.3
1.44635	25796
1.44643	25520.8
1.44652	25325.5
1.4466	26269.3
1.44669	25270.1
1.44677	25873.8
1.44686	25192.6
1.44695	25958.3
1.44703	24916.1
1.44712	25453.9
1.4472	24902.6
1.44729	25599.4
1.44737	24772.1
1.44746	25531.9
1.44755	25332.7
1.44763	24921.4
1.44772	24746.2
1.4478	24940
1.44789	24895.7
1.44798	24186.5
1.44806	25249.2
1.44815	24307
1.44823	24764.8
1.44832	24336.5
1.4484	25633.3
1.44849	24050
1.44858	24804.8
1.44866	24014.6
1.44875	25170.3
1.44883	23854.1
1.44892	25036.8
1.44901	24387.6
1.44909	24181.4
1.44918	24179.1
1.44926	24588.9
1.44935	24377.6
1.44944	23887.4
1.44952	24502.2
1.44961	23477.9
1.4497	24343.7
1.44978	23062.4
1.44987	24680.2
1.44995	23260
1.45004	23985.7
1.45013	22944.5
1.45021	24749.3
1.4503	22766
1.45038	24205.8
1.45047	22642.5
1.45056	23712.3
1.45064	22717.1
1.45073	23695.8
1.45082	23219.6
1.4509	22755.3
1.45099	22970.1
1.45107	22736.9
1.45116	23343.6
1.45125	22296.4
1.45133	23591.1
1.45142	22018.9
1.45151	23280.7
1.45159	21822.4
1.45168	24298.2
1.45177	22311.9
1.45185	23210.7
1.45194	21803.5
1.45202	23307.2
1.45211	22071
1.4522	23092.8
1.45228	22506.5
1.45237	22667.3
1.45246	22243
1.45254	22393.8
1.45263	22974.6
1.45272	21609.3
1.4528	22576.1
1.45289	21503.8
1.45298	23164.6
1.45306	21146.4
1.45315	23321.1
1.45324	20889.9
1.45332	22719.6
1.45341	21011.4
1.45349	23011.2
1.45358	21625.9
1.45367	22027.7
1.45375	21288.4
1.45384	22247.2
1.45393	21720
1.45401	21361.7
1.4541	21970.5
1.45419	21150.3
1.45427	22201
1.45436	20669.8
1.45445	22565.5
1.45454	20141.3
1.45462	21948.1
1.45471	19930.8
1.4548	22106.6
1.45488	20144.3
1.45497	21920.1
1.45506	20282.9
1.45514	21240.6
1.45523	20112.4
1.45532	21066.1
1.4554	21169.9
1.45549	20254.7
1.45558	20904.4
1.45566	20009.2
1.45575	21679.9
1.45584	19386.7
1.45592	21694.5
1.45601	19604.2
1.4561	21202
1.45619	19335.8
1.45627	21605.5
1.45636	19668.3
1.45645	20949
1.45653	19633.8
1.45662	21155.6
1.45671	20272.3
1.45679	20208.1
1.45688	20638.8
1.45697	19611.6
1.45706	20374.4
1.45714	19560.1
1.45723	21266.9
1.45732	19116.6
1.4574	20741.4
1.45749	18878.2
1.45758	20755.9
1.45767	18848.7
1.45775	20429.4
1.45784	19007.2
1.45793	20039
1.45801	18992.7
1.4581	19519.5
1.45819	19702.3
1.45828	18948
1.45836	19736.8
1.45845	18580.5
1.45854	20326.3
1.45862	18252.1
1.45871	20127.8
1.4588	18097.6
1.45889	19807.3
1.45897	17979.1
1.45906	19816.9
1.45915	18095.6
1.45924	19203.4
1.45932	17873.1
1.45941	19146.9
1.4595	19129.7
1.45959	18614.4
1.45967	18721.2
1.45976	18057.9
1.45985	19057.7
1.45994	17672.5
1.46002	19566.2
1.46011	17422
1.4602	19110.8
1.46029	17551.5
1.46037	19138.3
1.46046	17860
1.46055	18657.8
1.46064	17842.6
1.46072	18195.3
1.46081	18381.1
1.4609	18139.8
1.46099	18741.6
1.46107	17426.4
1.46116	18569.1
1.46125	17083.9
1.46134	19297.6
1.46142	17024.4
1.46151	18283.2
1.4616	16967.9
1.46169	18491.7
1.46177	17178.4
1.46186	18059.2
1.46195	17455
1.46204	17231.7
1.46213	17568.5
1.46221	16922.3
1.4623	18305
1.46239	16537.8
1.46248	17690.5
1.46256	16450.3
1.46265	18272.1
1.46274	16379.8
1.46283	17509.6
1.46292	16490.3
1.463	17231.1
1.46309	16630.9
1.46318	17229.6
1.46327	17030.4
1.46335	16270.1
1.46344	16995.9
1.46353	16312.7
1.46362	17591.4
1.46371	16109.2
1.46379	17360.9
1.46388	15971.7
1.46397	17260.5
1.46406	16063.2
1.46415	16962
1.46423	16339.8
1.46432	16582.5
1.46441	16141.3
1.4645	16379
1.46459	16986.8
1.46467	15728.6
1.46476	16610.3
1.46485	15660.1
1.46494	16833.8
1.46503	15497.6
1.46512	16641.4
1.4652	15601.1
1.46529	16128.9
1.46538	15522.6
1.46547	16191.4
1.46556	16022.2
1.46564	15563.9
1.46573	15625.7
1.46582	15396.4
1.46591	16334.2
1.466	14999
1.46609	15917.7
1.46617	15161.5
1.46626	15952.3
1.46635	15022
1.46644	15910.8
1.46653	15108.5
1.46662	15172.3
1.4667	14898.1
1.46679	15101.8
1.46688	15730.6
1.46697	14586.3
1.46706	15083.1
1.46715	14420.9
1.46723	15656.6
1.46732	14766.4
1.46741	15436.1
1.4675	14753.9
1.46759	14960.7
1.46768	14683.4
1.46776	14998.2
1.46785	15154.9
1.46794	14441.7
1.46803	14776.5
1.46812	14492.2
1.46821	15101
1.4683	14429.8
1.46838	15072.5
1.46847	14499.3
1.46856	14723
1.46865	14173.8
1.46874	14672.6
1.46883	14521.3
1.46892	14357.1
1.469	14379.8
1.46909	14311.6
1.46918	14779.4
1.46927	13998.1
1.46936	14217.9
1.46945	13948.6
1.46954	14341.4
1.46963	13975.2
1.46971	14069.9
1.4698	13977.7
1.46989	14036.4
1.46998	14135.2
1.47007	13856
1.47016	14159.7
1.47025	13829.5
1.47034	13922.3
1.47042	13630
1.47051	13977.8
1.4706	13562.5
1.47069	13514.3
1.47078	13758.1
1.47087	13661.8
1.47096	13327.6
1.47105	13490.3
1.47114	13737.1
1.47122	13376.9
1.47131	13294.6
1.4714	13145.4
1.47149	13481.1
1.47158	13411.9
1.47167	13341.7
1.47176	13238.4
1.47185	13143.2
1.47194	13228.9
1.47203	13019.7
1.47211	13324.5
1.4722	13065.2
1.47229	13123
1.47238	13017.7
1.47247	13137.5
1.47256	13168.3
1.47265	12979
1.47274	12999.8
1.47283	13023.6
1.47292	12996.3
1.47301	12812.1
1.4731	12819.8
1.47318	12792.6
1.47327	12912.4
1.47336	12651.1
1.47345	12674.9
1.47354	12802.6
1.47363	12687.4
1.47372	12760.2
1.47381	12592.9
1.4739	12689.7
1.47399	12550.4
1.47408	12393.2
1.47417	12487
1.47426	12664.7
1.47435	12429.5
1.47443	12408.2
1.47452	12395
1.47461	12360.8
1.4747	12284.5
1.47479	11915.3
1.47488	12423.1
1.47497	12199.8
1.47506	12098.6
1.47515	11943.3
1.47524	12179.1
1.47533	12263.9
1.47542	11853.6
1.47551	12270.4
1.4756	12019.1
1.47569	12333.9
1.47578	11725.7
1.47587	12064.4
1.47596	12064.2
1.47605	11873.9
1.47614	11642.7
1.47622	11943.5
1.47631	12181.2
1.4764	11611
1.47649	11872.7
1.47658	11640.5
1.47667	12198.3
1.47676	11602
1.47685	11975.8
1.47694	11640.6
1.47703	11625.3
1.47712	11764.1
1.47721	11370.8
1.4773	11869.6
1.47739	11438.4
1.47748	11739.1
1.47757	11328.9
1.47766	11676.6
1.47775	11389.4
1.47784	11336.2
1.47793	11277.9
1.47802	11308.7
1.47811	11603.4
1.4782	10973.2
1.47829	11437
1.47838	11126.7
1.47847	11370.5
1.47856	10881.2
1.47865	11336
1.47874	10933.8
1.47883	10884.5
1.47892	10841.3
1.47901	10939.1
1.4791	11307.8
1.47919	10771.6
1.47928	11055.3
1.47937	10733.1
1.47946	11413.9
1.47955	10621.6
1.47964	10930.4
1.47973	10706.1
1.47982	10949.9
1.47991	10998.7
1.48	10657.4
1.48009	11092.2
1.48018	10535.9
1.48027	11162.7
1.48036	10475.5
1.48045	10887.2
1.48054	10631
1.48063	10658.7
1.48072	10612.5
1.48081	10518.3
1.4809	11080
1.48099	10348.8
1.48108	10900.6
1.48117	10239.3
1.48126	10841.1
1.48135	10495.8
1.48144	10539.6
1.48153	10414.4
1.48162	10228.1
1.48171	10558.9
1.4818	10020.6
1.48189	10750.4
1.48198	10031.2
1.48207	10569.9
1.48217	10042.7
1.48226	10459.4
1.48235	10039.2
1.48244	10053
1.48253	10166.7
1.48262	9913.49
1.48271	10400.2
1.4828	9846.01
1.48289	10372.8
1.48298	9725.53
1.48307	10390.3
1.48316	9989.05
1.48325	9939.81
1.48334	9943.57
1.48343	9697.33
1.48352	10201.1
1.48361	9489.86
1.4837	10226.6
1.48379	9504.38
1.48388	9921.14
1.48398	9569.9
1.48407	9908.66
1.48416	9953.42
1.48425	9543.18
1.48434	9801.94
1.48443	9426.7
1.48452	9962.46
1.48461	9341.23
1.4847	9901.99
1.48479	9465.75
1.48488	9641.51
1.48497	9750.27
1.48506	9588.03
1.48516	9839.79
1.48525	9155.55
1.48534	9507.31
1.48543	9171.07
1.48552	9945.83
1.48561	9354.59
1.4857	9442.36
1.48579	9463.12
1.48588	9318.88
1.48597	9762.64
1.48606	8983.4
1.48615	9502.16
1.48625	8847.92
1.48634	9577.68
1.48643	9262.44
1.48652	9307.2
1.48661	9260.96
1.4867	9116.72
1.48679	9562.49
1.48688	8891.25
1.48697	9465.01
1.48706	8718.77
1.48716	9318.53
1.48725	8790.29
1.48734	9164.05
1.48743	9199.81
1.48752	8802.57
1.48761	9130.33
1.4877	8772.09
1.48779	9365.86
1.48788	8646.62
1.48798	8928.38
1.48807	8689.14
1.48816	8973.9
1.48825	8964.66
1.48834	8601.42
1.48843	8912.18
1.48852	8228.94
1.48861	9048.7
1.48871	8458.46
1.4888	8850.22
1.48889	8413.99
1.48898	8461.75
1.48907	8705.51
1.48916	8378.27
1.48925	8908.03
1.48934	8275.79
1.48944	8783.55
1.48953	8117.31
1.48962	8652.07
1.48971	8430.83
1.4898	8376.59
1.48989	8358.36
1.48998	8115.12
1.49008	8688.88
1.49017	8094.64
1.49026	8529.4
1.49035	7990.16
1.49044	8549.92
1.49053	8310.68
1.49063	8231.44
1.49072	8366.2
1.49081	7997.96
1.4909	8445.72
1.49099	7966.48
1.49108	8345.25
1.49117	7977.01
1.49127	8030.77
1.49136	7983.53
1.49145	7944.29
1.49154	8417.05
1.49163	7808.81
1.49172	8342.57
1.49182	7699.33
1.49191	8249.09
1.492	7865.85
1.49209	8085.62
1.49218	7848.38
1.49227	7757.14
1.49237	8226.9
1.49246	7550.66
1.49255	7889.42
1.49264	7693.18
1.49273	7869.94
1.49283	7782.7
1.49292	7740.46
1.49301	7868.22
1.4931	7423.98
1.49319	7821.75
1.49328	7475.51
1.49338	7945.27
1.49347	7577.03
1.49356	7668.79
1.49365	7560.55
1.49374	7553.31
1.49384	7741.07
1.49393	7455.83
1.49402	7633.59
1.49411	7324.35
1.4942	7673.11
1.4943	7448.88
1.49439	7396.64
1.49448	7416.4
1.49457	7373.16
1.49466	7723.92
1.49476	7359.68
1.49485	7329.44
1.49494	7246.2
1.49503	7420.96
1.49513	7401.72
1.49522	7401.48
1.49531	7347.24
1.4954	7082.01
1.49549	7429.77
1.49559	7258.53
1.49568	7369.29
1.49577	7320.05
1.49586	7115.81
1.49595	7224.57
1.49605	7197.33
1.49614	7250.09
1.49623	7141.85
1.49632	7218.61
1.49642	6998.38
1.49651	7074.14
1.4966	7184.9
1.49669	6906.66
1.49679	7036.42
1.49688	6986.18
1.49697	7164.94
1.49706	6955.7
1.49716	6864.46
1.49725	6879.22
1.49734	6960.98
1.49743	6929.74
1.49752	6834.51
1.49762	6894.27
1.49771	6717.03
1.4978	6774.79
1.49789	6891.55
1.49799	6715.31
1.49808	6782.07
1.49817	6747.83
1.49826	6651.59
1.49836	6566.35
1.49845	6817.11
1.49854	6584.88
1.49864	6534.64
1.49873	6780.4
1.49882	6645.16
1.49891	6679.92
1.49901	6614.68
1.4991	6727.44
1.49919	6542.2
1.49928	6553.96
1.49938	6638.72
1.49947	6498.48
1.49956	6498.24
1.49965	6446
1.49975	6676.77
1.49984	6550.53
1.49993	6571.29
1.50003	6500.05
1.50012	6536.81
1.50021	6410.57
1.5003	6420.33
1.5004	6535.09
1.50049	6428.85
1.50058	6439.61
1.50063	6421.78
1.50072	6356.65
1.50081	6327.16
1.5009	6266.59
1.50099	6236.56
1.50109	6240.72
1.50118	6256.22
1.50127	6328.48
1.50136	6125.32
1.50146	6173.86
1.50155	6155.52
1.50164	6200.89
1.50173	6177.88
1.50183	6100.19
1.50192	6012.5
1.50201	5958.81
1.5021	6030.13
1.5022	6006.44
1.50229	5883.75
1.50238	6008.07
1.50247	5971.38
1.50257	5934.69
1.50266	5749
1.50275	5997.32
1.50284	5642.63
1.50294	5831.94
1.50303	5865.25
1.50312	5724.57
1.50322	5843.88
1.50331	5651.19
1.5034	5759.5
1.50349	5675.82
1.50359	5741.13
1.50368	5669.44
1.50377	5507.75
1.50386	5600.07
1.50396	5512.38
1.50405	5864.69
1.50414	5473.01
1.50424	5486.32
1.50433	5530.63
1.50442	5534.94
1.50451	5547.26
1.50461	5444.57
1.5047	5625.88
1.50479	5140.19
1.50489	5511.51
1.50498	5393.82
1.50507	5374.13
1.50516	5437.44
1.50526	5242.76
1.50535	5500.07
1.50544	5219.38
1.50554	5350.69
1.50563	5109.01
1.50572	5213.32
1.50581	5388.63
1.50591	5162.94
1.506	5289.26
1.50609	4865.57
1.50619	5165.88
1.50628	5069.19
1.50637	5101.51
1.50647	5265.82
1.50656	4810.13
1.50665	5158.45
1.50675	4851.76
1.50684	5168.07
1.50693	4919.38
1.50703	4983.7
1.50712	5028.01
1.50721	4695.32
1.5073	5165.63
1.5074	4708.95
1.50749	4914.26
1.50758	4842.57
1.50768	4899.88
1.50777	4949.2
1.50786	4695.51
1.50796	5053.82
1.50805	4622.13
1.50814	4972.45
1.50824	4671.76
1.50833	4731.07
1.50842	4909.38
1.50852	4636.7
1.50861	4952.01
1.5087	4450.32
1.5088	4818.64
1.50889	4615.95
1.50898	4764.26
1.50908	4756.57
1.50917	4428.89
1.50926	4768.2
1.50936	4275.51
1.50945	4877.82
1.50955	4557.14
1.50964	4509.45
1.50973	4677.76
1.50983	4359.07
1.50992	4640.39
1.51001	4231.7
1.51011	4805.01
1.5102	4394.32
1.51029	4504.64
1.51039	4603.95
1.51048	4298.26
1.51058	4747.57
1.51067	4276.89
1.51076	4392.2
1.51086	4315.51
1.51095	4444.83
1.51104	4473.14
1.51114	4120.45
1.51123	4618.76
1.51132	4077.08
1.51142	4509.39
1.51151	4374.7
1.51161	4205.01
1.5117	4364.33
1.51179	4152.64
1.51189	4477.95
1.51198	4080.26
1.51208	4320.58
1.51217	4053.89
1.51226	4167.2
1.51236	4419.51
1.51245	4028.83
1.51254	4359.14
1.51264	3912.45
1.51273	4306.76
1.51283	4208.08
1.51292	3991.39
1.51301	4176.7
1.51311	3893.02
1.5132	4389.33
1.5133	3887.64
1.51339	4059.95
1.51348	4002.27
1.51358	3880.58
1.51367	4223.89
1.51377	3702.2
1.51386	4049.52
1.51396	3751.83
1.51405	4045.14
1.51414	4028.45
1.51424	3715.77
1.51433	4124.08
1.51443	3486.39
1.51452	4053.7
1.51461	3732.02
1.51471	3809.33
1.5148	3899.64
1.5149	3593.95
1.51499	3980.27
1.51509	3634.58
1.51518	3893.89
1.51527	3697.21
1.51537	3577.52
1.51546	3933.83
1.51556	3597.14
1.51565	3970.46
1.51575	3604.77
1.51584	3772.08
1.51594	3654.39
1.51603	3553.71
1.51612	3800.02
1.51622	3442.33
1.51631	3731.64
1.51641	3492.96
1.5165	3708.27
1.5166	3705.58
1.51669	3551.89
1.51679	3687.21
1.51688	3393.52
1.51697	3808.83
1.51707	3502.14
1.51716	3557.46
1.51726	3669.77
1.51735	3369.08
1.51745	3777.4
1.51754	3313.71
1.51764	3531.02
1.51773	3548.33
1.51783	3440.65
1.51792	3610.96
1.51802	3239.27
1.51811	3649.58
1.5182	3336.9
1.5183	3504.21
1.51839	3387.52
1.51849	3336.83
1.51858	3585.15
1.51868	3185.46
1.51877	3525.77
1.51887	3327.08
1.51896	3301.4
1.51906	3397.71
1.51915	3241.02
1.51925	3607.33
1.51934	3132.65
1.51944	3353.96
1.51953	3216.27
1.51963	3272.59
1.51972	3487.9
1.51982	3135.21
1.51991	3209.52
1.52001	3122.84
1.5201	3201.15
1.5202	3288.46
1.52029	3024.77
1.52039	3208.09
1.52048	2965.4
1.52058	3357.71
1.52067	3092.02
1.52077	3047.34
1.52086	3198.65
1.52096	3001.96
1.52105	3239.27
1.52115	2985.59
1.52124	3072.9
1.52134	3045.21
1.52143	3016.52
1.52153	3207.84
1.52162	3026.15
1.52172	3046.46
1.52181	3060.78
1.52191	3048.09
1.522	3187.4
1.5221	2903.71
1.52219	3086.03
1.52229	2870.34
1.52238	3058.65
1.52248	3065.96
1.52258	2865.28
1.52267	2983.59
1.52277	2787.9
1.52286	2990.21
1.52296	2885.53
1.52305	2803.84
1.52315	2897.15
1.52324	2829.46
1.52334	3045.78
1.52343	2788.09
1.52353	2862.4
1.52362	2866.71
1.52372	2734.03
1.52382	2834.34
1.52391	2746.65
1.52401	2783.97
1.5241	2744.28
1.5242	2794.59
1.52429	2882.9
1.52439	2615.22
1.52448	2802.53
1.52458	2677.84
1.52468	2747.15
1.52477	2759.47
1.52487	2636.78
1.52496	2734.09
1.52506	2587.4
1.52515	2820.72
1.52525	2703.03
1.52535	2689.34
1.52544	2643.65
1.52554	2640.97
1.52563	2792.28
1.52573	2706.59
1.52582	2619.91
1.52592	2761.22
1.52602	2574.53
1.52611	2679.84
1.52621	2630.16
1.5263	2509.47
1.5264	2570.78
1.52649	2565.09
1.52659	2632.41
1.52669	2623.72
1.52678	2525.03
1.52688	2471.34
1.52697	2505.66
1.52707	2638.97
1.52717	2459.28
1.52726	2516.59
1.52736	2480.91
1.52745	2500.22
1.52755	2556.53
1.52765	2399.84
1.52774	2534.16
1.52784	2452.47
1.52793	2460.78
1.52803	2439.09
1.52813	2389.41
1.52822	2515.72
1.52832	2352.03
1.52841	2482.35
1.52851	2398.66
1.52861	2436.97
1.5287	2395.28
1.5288	2428.6
1.5289	2410.91
1.52899	2385.22
1.52909	2396.53
1.52918	2470.85
1.52928	2321.16
1.52938	2443.47
1.52947	2430.78
1.52957	2300.1
1.52966	2392.41
1.52976	2303.72
1.52986	2293.03
1.52995	2409.35
1.53005	2235.66
1.53015	2296.97
1.53024	2345.28
1.53034	2307.6
1.53044	2214.91
1.53053	2223.22
1.53063	2277.54
1.53073	2250.85
1.53082	2274.16
1.53092	2306.47
1.53101	2170.79
1.53111	2270.1
1.53121	2172.41
1.5313	2281.72
1.5314	2218.04
1.5315	2119.35
1.53159	2209.66
1.53169	2179.97
1.53179	2105.29
1.53188	2134.6
1.53198	2121.91
1.53208	2181.22
1.53217	2167.54
1.53227	2191.85
1.53237	2139.16
1.53246	2164.47
1.53256	2141.79
1.53266	2107.1
1.53275	2223.41
1.53285	2024.73
1.53295	2106.04
1.53304	2115.35
1.53314	2079.66
1.53324	2199.98
1.53333	2063.29
1.53343	2029.6
1.53353	1983.91
1.53362	2008.23
1.53372	2173.54
1.53382	1973.85
1.53391	1973.16
1.53401	1974.48
1.53411	2034.79
1.53421	2109.1
1.5343	1962.41
1.5344	2135.73
1.5345	1996.04
1.53459	1967.35
1.53469	2110.66
1.53479	1951.98
1.53488	2091.29
1.53498	1857.6
1.53508	1980.92
1.53518	1978.23
1.53527	1886.54
1.53537	2015.85
1.53547	1948.17
1.53556	1900.48
1.53566	1937.79
1.53576	1861.1
1.53586	2024.42
1.53595	1847.73
1.53605	2027.04
1.53615	1880.35
1.53624	1910.67
1.53634	2007.98
1.53644	1851.29
1.53654	1909.6
1.53663	1856.92
1.53673	1773.23
1.53683	1987.54
1.53692	1750.85
1.53702	1927.17
1.53712	1812.48
1.53722	1847.79
1.53731	1975.11
1.53741	1717.42
1.53751	1947.73
1.53761	1784.04
1.5377	1839.36
1.5378	1943.67
1.5379	1717.98
1.538	1844.29
1.53809	1834.61
1.53819	1833.92
1.53829	1918.23
1.53839	1713.54
1.53848	1863.86
1.53858	1744.17
1.53868	1635.48
1.53878	1824.79
1.53887	1684.11
1.53897	1831.42
1.53907	1644.73
1.53917	1767.04
1.53926	1856.36
1.53936	1628.67
1.53946	1809.98
1.53956	1598.3
1.53965	1704.61
1.53975	1837.92
1.53985	1584.23
1.53995	1782.55
1.54005	1646.86
1.54014	1687.17
1.54024	1694.48
1.54034	1603.8
1.54044	1771.11
1.54053	1624.42
1.54063	1649.73
1.54073	1700.05
1.54083	1592.36
1.54093	1732.67
1.54102	1600.98
1.54112	1693.3
1.54122	1593.61
1.54132	1577.92
1.54142	1677.23
1.54151	1599.55
1.54161	1651.86
1.54171	1635.17
1.54181	1579.49
1.5419	1687.8
1.542	1506.11
1.5421	1545.42
1.5422	1593.74
1.5423	1485.05
1.54239	1725.36
1.54249	1434.67
1.54259	1601.99
1.54269	1629.3
1.54279	1521.61
1.54289	1675.92
1.54298	1543.24
1.54308	1599.55
1.54318	1520.86
1.54328	1464.17
1.54338	1590.49
1.54347	1515.8
1.54357	1456.11
1.54367	1529.42
1.54377	1462.74
1.54387	1601.05
1.54397	1483.36
1.54406	1505.68
1.54416	1531.99
1.54426	1362.3
1.54436	1540.61
1.54446	1390.93
1.54456	1548.24
1.54465	1497.55
1.54475	1396.86
1.54485	1604.18
1.54495	1379.49
1.54505	1460.8
1.54515	1440.11
1.54524	1393.43
1.54534	1494.74
1.54544	1358.05
1.54554	1452.36
1.54564	1442.68
1.54574	1376.99
1.54584	1537.3
1.54593	1328.61
1.54603	1420.93
1.54613	1528.24
1.54623	1303.55
1.54633	1386.87
1.54643	1355.18
1.54653	1365.49
1.54662	1435.8
1.54672	1277.12
1.54682	1392.43
1.54692	1359.74
1.54702	1354.05
1.54712	1418.37
1.54722	1246.68
1.54732	1360.99
1.54741	1315.3
1.54751	1292.62
1.54761	1340.93
1.54771	1233.24
1.54781	1393.55
1.54791	1230.87
1.54801	1260.18
1.54811	1341.49
1.5482	1234.8
1.5483	1334.12
1.5484	1216.43
1.5485	1265.74
1.5486	1289.06
1.5487	1222.37
1.5488	1252.68
1.5489	1324.99
1.549	1168.31
1.54909	1281.62
1.54919	1224.93
1.54929	1246.24
1.54939	1277.56
1.54949	1133.87
1.54959	1249.18
1.54969	1133.49
1.54979	1276.81
1.54989	1177.12
1.54999	1182.43
1.55009	1212.74
1.55018	1141.06
1.55028	1170.37
1.55038	1119.68
1.55048	1145.99
1.55058	1180.31
1.55068	1109.62
1.55078	1136.93
1.55088	1199.24
1.55098	1114.56
1.55108	1178.87
1.55118	1173.18
1.55128	1075.5
1.55138	1182.81
1.55147	1095.12
1.55157	1168.43
1.55167	1127.75
1.55177	1129.06
1.55187	1167.37
1.55197	1103.68
1.55207	1114
1.55217	1055.31
1.55227	1100.62
1.55237	1109.93
1.55247	1088.25
1.55257	1151.56
1.55267	1135.87
1.55277	1033.18
1.55287	1150.5
1.55297	1101.81
1.55307	1061.12
1.55317	1113.44
1.55326	1130.75
1.55336	1130.06
1.55346	1073.37
1.55356	990.686
1.55366	1055
1.55376	1042.31
1.55386	1037.62
1.55396	1095.94
1.55406	1069.25
1.55416	1018.56
1.55426	1006.87
1.55436	1042.19
1.55446	1064.5
1.55456	1025.81
1.55466	1079.12
1.55476	1007.44
1.55486	1074.75
1.55496	969.062
1.55506	1066.37
1.55516	1007.69
1.55526	987
1.55536	963.313
1.55546	976.625
1.55556	941.938
1.55566	986.25
1.55576	984.563
1.55586	973.875
1.55596	949.188
1.55606	1047.5
1.55616	955.813
1.55626	952.126
1.55636	950.438
1.55646	955.751
1.55656	976.064
1.55666	950.376
1.55676	923.689
1.55686	952.002
1.55696	938.314
1.55706	948.627
1.55716	880.939
1.55726	957.252
1.55736	891.565
1.55746	905.877
1.55756	894.19
1.55766	855.502
1.55776	876.815
1.55786	972.128
1.55796	902.44
1.55806	882.753
1.55816	913.065
1.55826	845.378
1.55836	893.691
1.55846	884.003
1.55856	850.316
1.55866	911.629
1.55876	787.941
1.55886	870.254
1.55896	874.566
1.55906	895.879
1.55916	909.192
1.55926	817.504
1.55936	812.817
1.55947	813.129
1.55957	761.442
1.55967	942.755
1.55977	838.067
1.55987	839.38
1.55997	853.692
1.56007	836.005
1.56017	773.318
1.56027	854.63
1.56037	813.943
1.56047	870.255
1.56057	833.568
1.56067	840.881
1.56077	836.193
1.56087	775.506
1.56097	813.818
1.56107	795.131
1.56118	858.444
1.56128	791.756
1.56138	747.069
1.56148	823.381
1.56158	810.694
1.56168	777.007
1.56178	820.319
1.56188	826.632
1.56198	856.945
1.56208	833.257
1.56218	768.57
1.56228	807.882
1.56238	832.195
1.56249	742.508
1.56259	791.82
1.56269	746.133
1.56279	816.445
1.56289	783.758
1.56299	668.071
1.56309	770.383
1.56319	742.696
1.56329	735.008
1.56339	851.321
1.56349	709.634
1.5636	780.946
1.5637	737.259
1.5638	696.572
1.5639	769.884
1.564	702.197
1.5641	758.509
1.5642	710.822
1.5643	749.135
1.5644	738.447
1.56451	694.76
1.56461	740.072
1.56471	783.385
1.56481	687.698
1.56491	764.01
1.56501	754.323
1.56511	648.635
1.56521	742.948
1.56532	676.261
1.56542	751.573
1.56552	696.886
1.56562	708.198
1.56572	768.511
1.56582	690.824
1.56592	686.136
1.56602	735.449
1.56613	630.761
1.56623	698.074
1.56633	685.387
1.56643	627.699
1.56653	703.012
1.56663	719.324
1.56673	681.637
1.56684	675.95
1.56694	621.262
1.56704	643.575
1.56714	682.888
1.56724	595.2
1.56734	752.513
1.56744	671.825
1.56755	699.138
1.56765	735.451
1.56775	641.763
1.56785	693.076
1.56795	676.388
1.56805	665.701
1.56816	708.014
1.56826	614.326
1.56836	729.639
1.56846	667.951
1.56856	571.264
1.56866	639.577
1.56877	619.889
1.56887	624.202
1.56897	631.515
1.56907	548.827
1.56917	695.14
1.56928	665.452
1.56938	619.765
1.56948	641.078
1.56958	575.39
1.56968	645.703
1.56978	645.015
1.56989	610.328
1.56999	666.641
1.57009	590.953
1.57019	563.266
1.57029	660.578
1.5704	628.891
1.5705	551.204
1.5706	627.516
1.5707	543.829
1.5708	586.141
1.57091	609.454
1.57101	580.767
1.57111	631.079
1.57121	606.392
1.57131	569.704
1.57142	635.017
1.57152	508.33
1.57162	611.642
1.57172	629.955
1.57183	556.268
1.57193	622.58
1.57203	588.893
1.57213	545.205
1.57223	579.518
1.57234	530.831
1.57244	616.143
1.57254	598.456
1.57264	542.768
1.57275	581.081
1.57285	536.394
1.57295	522.706
1.57305	585.019
1.57315	436.331
1.57326	563.644
1.57336	500.957
1.57346	570.269
1.57356	599.582
1.57367	528.894
1.57377	518.207
1.57387	509.52
1.57397	468.832
1.57408	532.145
1.57418	563.458
1.57428	548.77
1.57438	572.083
1.57449	543.395
1.57459	485.708
1.57469	579.021
1.57479	485.333
1.5749	522.646
1.575	467.958
1.5751	518.271
1.57521	513.584
1.57531	506.896
1.57541	452.209
1.57551	530.521
1.57562	469.834
1.57572	543.147
1.57582	512.459
1.57592	472.772
1.57603	537.084
1.57613	453.397
1.57623	434.71
1.57634	475.022
1.57644	446.335
1.57654	507.647
1.57664	448.96
1.57675	486.273
1.57685	479.585
1.57695	495.898
1.57706	464.211
1.57716	525.523
1.57726	498.836
1.57736	481.148
1.57747	475.461
1.57757	451.774
1.57767	472.086
1.57778	465.399
1.57788	424.711
1.57798	460.024
1.57809	448.337
1.57819	431.649
1.57829	433.962
1.57839	395.274
1.5785	453.587
1.5786	498.9
1.5787	428.212
1.57881	486.525
1.57891	427.837
1.57901	419.15
1.57912	453.463
1.57922	393.775
1.57932	426.088
1.57943	463.401
1.57953	429.713
1.57963	445.026
1.57974	390.338
1.57984	387.651
1.57994	478.964
1.58005	404.276
1.58015	388.589
1.58025	456.901
1.58036	461.214
1.58046	407.527
1.58056	432.839
1.58067	427.152
1.58077	446.464
1.58087	405.777
1.58098	383.09
1.58108	393.402
1.58118	374.715
1.58129	407.027
1.58139	389.34
1.58149	417.653
1.5816	431.965
1.5817	481.278
1.58181	405.59
1.58191	415.903
1.58201	421.216
1.58212	385.528
1.58222	415.841
1.58232	374.154
1.58243	402.466
1.58253	398.779
1.58263	392.091
1.58274	394.404
1.58284	353.717
1.58295	380.029
1.58305	331.342
1.58315	405.654
1.58326	391.967
1.58336	368.28
1.58346	383.592
1.58357	388.905
1.58367	371.217
1.58378	365.53
1.58388	368.843
1.58398	365.155
1.58409	354.468
1.58419	340.78
1.5843	385.093
1.5844	406.406
1.5845	308.718
1.58461	366.031
1.58471	380.344
1.58482	365.656
1.58492	355.969
1.58502	385.281
1.58513	352.594
1.58523	382.907
1.58534	318.219
1.58544	380.532
1.58554	378.844
1.58565	373.157
1.58575	373.47
1.58586	364.782
1.58596	338.095
1.58606	385.407
1.58617	352.72
1.58627	340.033
1.58638	364.345
1.58648	336.658
1.58659	324.97
1.58669	356.283
1.58679	343.596
1.5869	330.908
1.587	377.221
1.58711	355.534
1.58721	361.846
1.58732	356.159
1.58742	318.471
1.58752	332.784
1.58763	340.097
1.58773	317.409
1.58784	316.722
1.58794	316.034
1.58805	339.347
1.58815	338.66
1.58826	343.972
1.58836	353.285
1.58847	339.597
1.58857	343.91
1.58867	323.223
1.58878	333.535
1.58888	345.848
1.58899	272.16
1.58909	320.473
1.5892	307.786
1.5893	313.098
1.58941	284.411
1.58951	335.723
1.58962	312.036
1.58972	310.349
1.58983	281.661
1.58993	291.974
1.59003	350.287
1.59014	311.599
1.59024	263.912
1.59035	300.224
1.59045	292.537
1.59056	326.85
1.59066	309.162
1.59077	291.475
1.59087	303.787
1.59098	316.1
1.59108	325.413
1.59119	255.725
1.59129	370.038
1.5914	299.35
1.5915	312.663
1.59161	314.976
1.59171	306.288
1.59182	322.601
1.59192	242.913
1.59203	290.226
1.59213	348.539
1.59224	315.851
1.59234	300.164
1.59245	330.477
1.59255	279.789
1.59266	269.102
1.59276	278.414
1.59287	288.727
1.59297	304.04
1.59308	257.352
1.59318	280.665
1.59329	329.977
1.59339	300.29
1.5935	305.603
1.59361	308.915
1.59371	254.228
1.59382	321.54
1.59392	295.853
1.59403	280.166
1.59413	291.478
1.59424	320.791
1.59434	305.103
1.59445	292.416
1.59455	278.729
1.59466	293.041
1.59476	280.354
1.59487	305.667
1.59498	288.979
1.59508	292.292
1.59519	289.604
1.59529	285.917
1.5954	276.23
1.5955	303.542
1.59561	264.855
1.59571	287.167
1.59582	289.48
1.59592	279.793
1.59603	285.105
1.59614	262.418
1.59624	284.73
1.59635	296.043
1.59645	278.356
1.59656	284.668
1.59666	275.981
1.59677	261.293
1.59688	286.606
1.59698	261.919
1.59709	270.231
1.59719	294.544
1.5973	273.856
1.5974	271.169
1.59751	234.482
1.59762	238.794
1.59772	262.107
1.59783	318.42
1.59793	234.732
1.59804	286.045
1.59815	282.357
1.59825	270.67
1.59836	302.983
1.59846	282.295
1.59857	263.608
1.59868	307.92
1.59878	260.233
1.59889	293.546
1.59899	329.858
1.5991	273.171
1.59913	269.561
1.59923	277.169
1.59934	291.355
1.59944	286.208
1.59955	285.624
1.59966	258.76
1.59976	231.493
1.59987	271.568
1.59997	254.027
1.60008	243.648
1.60018	244.793
1.60029	160.815
1.60039	220.836
1.6005	214.857
1.60061	137.879
1.60071	201.9
1.60082	163.921
1.60092	158.943
1.60103	145.964
1.60113	130.985
1.60124	144.007
1.60135	144.028
1.60145	91.0495
1.60156	81.0708
1.60166	119.092
1.60177	62.1134
1.60188	21.1348
1.60198	93.1561
1.60209	49.1775
1.60219	69.1988
1.6023	77.2201
1.6024	-17.7585
1.60251	22.2628
1.60262	-10.7159
1.60272	-34.6945
1.60283	-18.6732
1.60293	-12.6519
1.60304	-43.6305
1.60315	-23.6092
1.60325	-55.5879
1.60336	-119.567
1.60346	-64.5452
1.60357	-51.5239
1.60368	-140.503
1.60378	-83.4812
1.60389	-107.46
1.60399	-102.439
1.6041	-75.4173
1.60421	-125.396
1.60431	-127.375
1.60442	-168.353
1.60453	-163.332
1.60463	-160.311
1.60474	-134.289
1.60484	-161.268
1.60495	-142.247
1.60506	-180.225
1.60516	-224.204
1.60527	-238.183
1.60538	-233.161
1.60548	-219.14
1.60559	-208.119
1.6057	-250.097
1.6058	-233.076
1.60591	-211.055
1.60601	-253.033
1.60612	-236.012
1.60623	-235.991
1.60633	-273.969
1.60644	-256.948
1.60655	-241.927
1.60665	-283.905
1.60676	-259.884
1.60687	-253.863
1.60697	-287.841
1.60708	-293.82
1.60719	-316.799
1.60729	-285.777
1.6074	-333.756
1.60751	-280.735
1.60761	-304.713
1.60772	-349.692
1.60783	-337.671
1.60793	-354.649
1.60804	-329.628
1.60815	-360.607
1.60825	-362.585
1.60836	-270.564
1.60847	-379.543
1.60857	-369.521
1.60868	-351.5
1.60879	-370.479
1.60889	-367.457
1.609	-363.436
1.60911	-372.415
1.60921	-409.393
1.60932	-407.372
1.60943	-452.351
1.60954	-384.329
1.60964	-414.308
1.60975	-446.287
1.60986	-358.265
1.60996	-402.244
1.61007	-456.223
1.61018	-436.201
1.61028	-413.18
1.61039	-418.159
1.6105	-431.137
1.61061	-431.116
1.61071	-459.095
1.61082	-396.073
1.61093	-427.052
1.61103	-435.031
1.61114	-458.009
1.61125	-468.988
1.61136	-473.967
1.61146	-453.945
1.61157	-486.924
1.61168	-449.903
1.61178	-469.881
1.61189	-449.86
1.612	-463.839
1.61211	-470.817
1.61221	-516.796
1.61232	-492.775
1.61243	-459.753
1.61254	-498.732
1.61264	-484.711
1.61275	-523.689
1.61286	-504.668
1.61297	-527.647
1.61307	-503.625
1.61318	-501.604
1.61329	-488.583
1.6134	-517.561
1.6135	-536.54
1.61361	-528.519
1.61372	-510.497
1.61383	-550.476
1.61393	-543.455
1.61404	-553.433
1.61415	-523.412
1.61426	-539.391
1.61436	-547.369
1.61447	-518.348
1.61458	-534.327
1.61469	-533.305
1.61479	-551.284
1.6149	-543.263
1.61501	-541.241
1.61512	-530.22
1.61523	-540.199
1.61533	-558.177
1.61544	-553.156
1.61555	-556.135
1.61566	-573.113
1.61576	-564.092
1.61587	-612.071
1.61598	-592.049
1.61609	-561.028
1.6162	-571.007
1.6163	-615.985
1.61641	-534.964
1.61652	-543.943
1.61663	-623.921
1.61674	-563.9
1.61684	-592.879
1.61695	-564.857
1.61706	-601.836
1.61717	-595.815
1.61728	-583.793
1.61738	-562.772
1.61749	-594.751
1.6176	-569.729
1.61771	-583.708
1.61782	-584.687
1.61792	-586.665
1.61803	-615.644
1.61814	-601.623
1.61825	-562.601
1.61836	-636.58
1.61847	-574.559
1.61857	-596.537
1.61868	-611.516
1.61879	-636.495
1.6189	-584.473
1.61901	-621.452
1.61912	-610.431
1.61922	-586.409
1.61933	-643.388
1.61944	-631.367
1.61955	-639.345
1.61966	-593.324
1.61977	-626.303
1.61987	-568.281
1.61998	-633.26
1.62009	-659.239
1.6202	-606.217
1.62031	-658.196
1.62042	-628.175
1.62053	-622.153
1.62063	-634.132
1.62074	-684.111
1.62085	-624.089
1.62096	-637.068
1.62107	-637.047
1.62118	-627.025
1.62129	-658.004
1.62139	-663.983
1.6215	-600.961
1.62161	-644.94
1.62172	-622.919
1.62183	-615.897
1.62194	-638.876
1.62205	-626.855
1.62216	-636.833
1.62226	-634.812
1.62237	-650.791
1.62248	-619.769
1.62259	-661.748
1.6227	-673.727
1.62281	-647.705
1.62292	-638.684
1.62303	-657.663
1.62313	-644.641
1.62324	-649.62
1.62335	-637.599
1.62346	-634.577
1.62357	-654.556
1.62368	-667.535
1.62379	-664.513
1.6239	-679.492
1.62401	-664.471
1.62412	-671.449
1.62423	-665.428
1.62433	-672.407
1.62444	-663.385
1.62455	-678.364
1.62466	-666.343
1.62477	-665.322
1.62488	-678.3
1.62499	-670.279
1.6251	-627.257
1.62521	-706.236
1.62532	-704.215
1.62543	-679.193
1.62554	-687.172
1.62564	-659.151
1.62575	-671.13
1.62586	-682.108
1.62597	-702.087
1.62608	-694.065
1.62619	-674.044
1.6263	-702.023
1.62641	-673.001
1.62652	-671.98
1.62663	-712.959
1.62674	-667.938
1.62685	-673.916
1.62696	-706.895
1.62707	-657.874
1.62718	-695.852
1.62729	-709.831
1.6274	-627.81
1.6275	-678.788
1.62761	-694.767
1.62772	-643.745
1.62783	-659.724
1.62794	-717.703
1.62805	-690.682
1.62816	-712.66
1.62827	-679.639
1.62838	-684.618
1.62849	-693.596
1.6286	-709.575
1.62871	-674.554
1.62882	-684.532
1.62893	-697.511
1.62904	-651.49
1.62915	-697.468
1.62926	-719.447
1.62937	-685.426
1.62948	-693.404
1.62959	-736.383
1.6297	-678.362
1.62981	-707.34
1.62992	-680.319
1.63003	-685.298
1.63014	-721.276
1.63025	-701.255
1.63036	-708.234
1.63047	-685.212
1.63058	-700.191
1.63069	-686.17
1.6308	-705.148
1.63091	-687.127
1.63102	-666.106
1.63113	-699.084
1.63124	-724.063
1.63135	-722.042
1.63146	-738.02
1.63157	-707.999
1.63168	-715.978
1.63179	-689.956
1.6319	-731.935
1.63201	-714.914
1.63212	-665.892
1.63223	-707.871
1.63234	-698.85
1.63245	-656.828
1.63256	-694.807
1.63267	-701.786
1.63278	-690.764
1.63289	-707.743
1.633	-710.722
1.63311	-693.7
1.63322	-691.679
1.63333	-668.658
1.63345	-737.636
1.63356	-705.615
1.63367	-695.594
1.63378	-731.572
1.63389	-712.551
1.634	-709.53
1.63411	-725.508
1.63422	-714.487
1.63433	-730.466
1.63444	-710.444
1.63455	-691.423
1.63466	-708.402
1.63477	-692.38
1.63488	-706.359
1.63499	-689.338
1.6351	-734.316
1.63521	-687.295
1.63533	-720.274
1.63544	-709.252
1.63555	-680.231
1.63566	-712.21
1.63577	-703.188
1.63588	-728.167
1.63599	-710.146
1.6361	-691.124
1.63621	-715.103
1.63632	-723.082
1.63643	-703.06
1.63654	-709.039
1.63665	-707.018
1.63677	-703.996
1.63688	-730.975
1.63699	-732.954
1.6371	-709.932
1.63721	-711.911
1.63732	-706.89
1.63743	-668.868
1.63754	-716.847
1.63765	-702.826
1.63776	-708.804
1.63788	-718.783
1.63799	-673.762
1.6381	-710.74
1.63821	-681.719
1.63832	-751.698
1.63843	-738.676
1.63854	-700.655
1.63865	-722.634
1.63877	-715.612
1.63888	-736.591
1.63899	-723.57
1.6391	-721.548
1.63921	-709.527
1.63932	-725.506
1.63943	-673.484
1.63954	-716.463
1.63966	-720.442
1.63977	-719.42
1.63988	-711.399
1.63999	-711.378
1.6401	-710.356
1.64021	-721.335
1.64032	-734.314
1.64044	-703.292
1.64055	-693.271
1.64066	-668.25
1.64077	-710.228
1.64088	-711.207
1.64099	-690.186
1.6411	-708.164
1.64122	-715.143
1.64133	-676.122
1.64144	-712.1
1.64155	-692.079
1.64166	-698.058
1.64177	-725.036
1.64189	-717.015
1.642	-725.994
1.64211	-709.972
1.64222	-680.951
1.64233	-715.93
1.64244	-700.908
1.64256	-709.887
1.64267	-712.866
1.64278	-697.844
1.64289	-725.823
1.643	-700.802
1.64312	-675.78
1.64323	-738.759
1.64334	-712.738
1.64345	-675.716
1.64356	-691.695
1.64367	-723.674
1.64379	-685.652
1.6439	-736.631
1.64401	-685.61
1.64412	-665.588
1.64423	-682.567
1.64435	-712.546
1.64446	-697.524
1.64457	-695.503
1.64468	-691.482
1.6448	-690.46
1.64491	-712.439
1.64502	-696.418
1.64513	-661.396
1.64524	-687.375
1.64536	-729.354
1.64547	-701.332
1.64558	-665.311
1.64569	-720.29
1.6458	-685.268
1.64592	-676.247
1.64603	-716.226
1.64614	-706.204
1.64625	-670.183
1.64637	-712.162
1.64648	-701.14
1.64659	-745.119
1.6467	-684.098
1.64682	-674.076
1.64693	-698.055
1.64704	-711.034
1.64715	-723.012
1.64727	-690.991
1.64738	-691.97
1.64749	-686.948
1.6476	-705.927
1.64772	-673.906
1.64783	-712.884
1.64794	-714.863
1.64805	-652.842
1.64817	-679.82
1.64828	-727.799
1.64839	-664.778
1.6485	-703.756
1.64862	-717.735
1.64873	-711.714
1.64884	-673.692
1.64895	-692.671
1.64907	-668.65
1.64918	-662.628
1.64929	-678.607
1.64941	-690.586
1.64952	-706.564
1.64963	-701.543
1.64974	-742.522
1.64986	-681.5
1.64997	-710.479
1.65008	-696.458
1.6502	-655.436
1.65031	-701.415
1.65042	-688.394
1.65053	-689.372
1.65065	-673.351
1.65076	-675.33
1.65087	-704.308
1.65099	-675.287
1.6511	-698.266
1.65121	-680.244
1.65133	-657.223
1.65144	-692.202
1.65155	-683.18
1.65167	-689.159
1.65178	-730.138
1.65189	-704.117
1.652	-669.095
1.65212	-665.074
1.65223	-697.052
1.65234	-673.031
1.65246	-668.01
1.65257	-697.988
1.65268	-693.967
1.6528	-657.946
1.65291	-658.924
1.65302	-698.903
1.65314	-656.882
1.65325	-701.86
1.65336	-674.839
1.65348	-663.818
1.65359	-635.797
1.6537	-670.775
1.65382	-692.754
1.65393	-701.732
1.65404	-686.711
1.65416	-663.69
1.65427	-663.668
1.65439	-660.647
1.6545	-685.626
1.65461	-644.604
1.65473	-645.583
1.65484	-657.562
1.65495	-676.54
1.65507	-683.519
1.65518	-697.498
1.65529	-661.477
1.65541	-663.455
1.65552	-690.434
1.65563	-674.412
1.65575	-652.391
1.65586	-686.37
1.65598	-686.349
1.65609	-632.327
1.6562	-644.306
1.65632	-694.285
1.65643	-674.263
1.65655	-658.242
1.65666	-672.22
1.65677	-638.199
1.65689	-646.178
1.657	-660.157
1.65711	-654.135
1.65723	-647.114
1.65734	-658.093
1.65746	-627.071
1.65757	-644.05
1.65768	-688.029
1.6578	-652.007
1.65791	-676.986
1.65803	-644.965
1.65814	-661.943
1.65826	-645.922
1.65837	-686.901
1.65848	-617.879
1.6586	-604.858
1.65871	-708.837
1.65883	-659.815
1.65894	-688.794
1.65905	-662.773
1.65917	-630.751
1.65928	-635.73
1.6594	-659.709
1.65951	-632.687
1.65963	-638.666
1.65974	-630.645
1.65985	-654.623
1.65997	-629.602
1.66008	-635.581
1.6602	-637.559
1.66031	-645.538
1.66043	-646.517
1.66054	-664.495
1.66066	-643.474
1.66077	-642.453
1.66088	-630.431
1.661	-609.41
1.66111	-631.389
1.66123	-628.367
1.66134	-649.346
1.66146	-654.325
1.66157	-649.303
1.66169	-634.282
1.6618	-633.261
1.66192	-666.239
1.66203	-619.218
1.66214	-662.197
1.66226	-622.175
1.66237	-650.154
1.66249	-648.133
1.6626	-651.111
1.66272	-619.09
1.66283	-616.069
1.66295	-621.047
1.66306	-619.026
1.66318	-644.005
1.66329	-628.983
1.66341	-622.962
1.66352	-635.941
1.66364	-624.919
1.66375	-648.898
1.66387	-635.877
1.66398	-626.855
1.6641	-652.834
1.66421	-616.813
1.66433	-637.791
1.66444	-635.77
1.66456	-614.749
1.66467	-644.727
1.66479	-621.706
1.6649	-629.685
1.66502	-623.663
1.66513	-597.642
1.66525	-622.621
1.66536	-609.599
1.66548	-628.578
1.66559	-621.557
1.66571	-616.535
1.66582	-618.514
1.66594	-618.493
1.66605	-629.471
1.66617	-656.45
1.66628	-638.429
1.6664	-589.407
1.66651	-604.386
1.66663	-611.365
1.66675	-612.343
1.66686	-631.322
1.66698	-618.301
1.66709	-573.279
1.66721	-620.258
1.66732	-638.237
1.66744	-607.215
1.66755	-612.194
1.66767	-602.173
1.66778	-592.151
1.6679	-621.13
1.66802	-599.109
1.66813	-619.087
1.66825	-624.066
1.66836	-613.045
1.66848	-610.023
1.66859	-571.002
1.66871	-626.981
1.66883	-597.959
1.66894	-604.938
1.66906	-608.917
1.66917	-601.895
1.66929	-635.874
1.6694	-588.853
1.66952	-599.831
1.66964	-659.81
1.66975	-623.789
1.66987	-585.767
1.66998	-612.746
1.6701	-607.725
1.67021	-594.703
1.67033	-586.682
1.67045	-610.661
1.67056	-574.639
1.67068	-614.618
1.67079	-558.597
1.67091	-600.575
1.67103	-629.554
1.67114	-618.533
1.67126	-594.511
1.67137	-618.49
1.67149	-575.469
1.67161	-626.447
1.67172	-583.426
1.67184	-571.405
1.67196	-619.383
1.67207	-594.362
1.67219	-601.341
1.6723	-577.319
1.67242	-576.298
1.67254	-580.277
1.67265	-589.255
1.67277	-570.234
1.67288	-570.213
1.673	-594.191
1.67312	-566.17
1.67323	-598.149
1.67335	-597.127
1.67347	-590.106
1.67358	-556.085
1.6737	-603.063
1.67382	-566.042
1.67393	-584.021
1.67405	-594.999
1.67417	-578.978
1.67428	-554.957
1.6744	-556.935
1.67451	-581.914
1.67463	-597.893
1.67475	-581.871
1.67486	-534.85
1.67498	-616.829
1.6751	-561.807
1.67521	-565.786
1.67533	-583.765
1.67545	-574.743
1.67556	-528.722
1.67568	-572.701
1.6758	-543.679
1.67591	-554.658
1.67603	-578.637
1.67615	-567.615
1.67626	-573.594
1.67638	-558.573
1.6765	-604.551
1.67662	-584.53
1.67673	-541.509
1.67685	-551.487
1.67697	-531.466
1.67708	-558.445
1.6772	-578.423
1.67732	-574.402
1.67743	-583.381
1.67755	-549.359
1.67767	-567.338
1.67778	-563.317
1.6779	-553.295
1.67802	-538.274
1.67814	-540.253
1.67825	-582.231
1.67837	-604.21
1.67849	-575.189
1.6786	-546.167
1.67872	-544.146
1.67884	-574.125
1.67896	-580.103
1.67907	-537.082
1.67919	-548.061
1.67931	-557.039
1.67942	-573.018
1.67954	-528.997
1.67966	-562.975
1.67978	-540.954
1.67989	-552.933
1.68001	-568.911
1.68013	-577.89
1.68025	-545.869
1.68036	-534.847
1.68048	-527.826
1.6806	-589.805
1.68072	-535.783
1.68083	-536.762
1.68095	-571.741
1.68107	-550.719
1.68119	-530.698
1.6813	-563.677
1.68142	-554.655
1.68154	-551.634
1.68166	-525.613
1.68177	-518.591
1.68189	-519.57
1.68201	-535.549
1.68213	-530.527
1.68224	-570.506
1.68236	-555.485
1.68248	-554.464
1.6826	-514.442
1.68271	-529.421
1.68283	-553.4
1.68295	-523.378
1.68307	-539.357
1.68319	-541.336
1.6833	-534.314
1.68342	-517.293
1.68354	-545.272
1.68366	-518.25
1.68378	-527.229
1.68389	-526.207
1.68401	-547.186
1.68413	-526.165
1.68425	-529.143
1.68437	-532.122
1.68448	-543.101
1.6846	-534.079
1.68472	-540.058
1.68484	-527.037
1.68496	-535.016
1.68507	-502.994
1.68519	-508.973
1.68531	-561.951
1.68543	-510.93
1.68555	-546.909
1.68566	-535.888
1.68578	-515.866
1.6859	-534.845
1.68602	-541.823
1.68614	-490.802
1.68626	-528.781
1.68637	-539.76
1.68649	-539.738
1.68661	-475.717
1.68673	-481.695
1.68685	-514.674
1.68697	-532.653
1.68708	-544.632
1.6872	-514.61
1.68732	-496.589
1.68744	-503.568
1.68756	-501.546
1.68768	-497.525
1.6878	-485.504
1.68791	-518.482
1.68803	-522.461
1.68815	-489.44
1.68827	-505.418
1.68839	-499.397
1.68851	-494.376
1.68863	-521.354
1.68874	-506.333
1.68886	-515.312
1.68898	-506.29
1.6891	-498.269
1.68922	-499.248
1.68934	-493.226
1.68946	-500.205
1.68958	-527.184
1.68969	-505.162
1.68981	-483.141
1.68993	-486.12
1.69005	-510.098
1.69017	-484.077
1.69029	-501.056
1.69041	-510.034
1.69053	-529.013
1.69064	-504.992
1.69076	-480.97
1.69088	-490.949
1.691	-459.928
1.69112	-489.906
1.69124	-495.885
1.69136	-500.864
1.69148	-483.842
1.6916	-471.821
1.69172	-487.8
1.69184	-484.778
1.69195	-490.757
1.69207	-475.736
1.69219	-505.714
1.69231	-468.693
1.69243	-451.672
1.69255	-479.65
1.69267	-447.629
1.69279	-466.608
1.69291	-469.586
1.69303	-479.565
1.69315	-461.544
1.69327	-481.522
1.69339	-471.501
1.69351	-464.48
1.69362	-471.458
1.69374	-520.437
1.69386	-455.416
1.69398	-477.394
1.6941	-492.373
1.69422	-456.352
1.69434	-451.33
1.69446	-461.309
1.69458	-489.288
1.6947	-467.266
1.69482	-468.245
1.69494	-446.224
1.69506	-492.202
1.69518	-459.181
1.6953	-445.16
1.69542	-515.138
1.69554	-447.117
1.69566	-450.096
1.69578	-463.074
1.6959	-469.053
1.69602	-454.032
1.69614	-444.01
1.69626	-445.989
1.69638	-447.968
1.6965	-458.946
1.69662	-460.925
1.69674	-436.904
1.69686	-435.882
1.69698	-437.861
1.6971	-459.84
1.69721	-445.818
1.69733	-454.797
1.69745	-459.776
1.69757	-432.754
1.69769	-444.733
1.69781	-477.712
1.69793	-450.69
1.69806	-429.669
1.69818	-456.648
1.6983	-434.626
1.69842	-437.605
1.69854	-434.584
1.69866	-457.562
1.69878	-406.541
1.6989	-410.52
1.69902	-440.498
1.69914	-453.477
1.69926	-441.456
1.69938	-443.434
1.6995	-422.413
1.69962	-440.392
1.69974	-404.37
1.69986	-410.349
1.69998	-418.328
1.7001	-416.306
1.70022	-397.285
1.70034	-404.264
1.70046	-433.242
1.70058	-426.221
1.7007	-423.2
1.70082	-441.178
1.70094	-399.157
1.70106	-389.136
1.70118	-408.114
1.7013	-414.093
1.70142	-397.072
1.70155	-420.05
1.70167	-415.029
1.70179	-392.008
1.70191	-427.986
1.70203	-423.965
1.70215	-386.944
1.70227	-391.922
1.70239	-430.901
1.70251	-405.88
1.70263	-432.858
1.70275	-407.837
1.70287	-416.816
1.70299	-380.794
1.70311	-385.773
1.70324	-397.752
1.70336	-423.73
1.70348	-404.709
1.7036	-407.688
1.70372	-401.666
1.70384	-375.645
1.70396	-385.624
1.70408	-377.602
1.7042	-383.581
1.70432	-387.56
1.70444	-385.538
1.70457	-387.517
1.70469	-368.496
1.70481	-378.474
1.70493	-376.453
1.70505	-359.432
1.70517	-380.41
1.70529	-381.389
1.70541	-370.368
1.70553	-389.346
1.70566	-358.325
1.70578	-337.304
1.7059	-387.282
1.70602	-352.261
1.70614	-340.24
1.70626	-337.218
1.70638	-351.197
1.70651	-323.176
1.70663	-377.154
1.70675	-376.133
1.70687	-353.112
1.70699	-339.09
1.70711	-348.069
1.70723	-350.048
1.70736	-344.026
1.70748	-356.005
1.7076	-337.984
1.70772	-362.962
1.70784	-316.941
1.70796	-339.92
1.70808	-376.898
1.70821	-329.877
1.70833	-331.856
1.70845	-341.834
1.70857	-330.813
1.70869	-349.792
1.70881	-324.77
1.70894	-328.749
1.70906	-352.728
1.70918	-344.706
1.7093	-343.685
1.70942	-325.664
1.70954	-310.642
1.70967	-315.621
1.70979	-346.6
1.70991	-368.578
1.71003	-328.557
1.71015	-290.536
1.71028	-333.514
1.7104	-310.493
1.71052	-326.472
1.71064	-316.45
1.71076	-325.429
1.71089	-302.408
1.71101	-335.386
1.71113	-302.365
1.71125	-293.344
1.71137	-319.322
1.7115	-320.301
1.71162	-309.28
1.71174	-294.258
1.71186	-319.237
1.71199	-350.216
1.712	-336.821
1.71212	-287.398
1.71224	-291.61
1.71237	-305.777
1.71249	-292.572
1.71261	-278.131
1.71273	-292.717
1.71285	-326.997
1.71297	-321.684
1.7131	-345.096
1.71322	-324.44
1.71334	-345.016
1.71346	-382.95
1.71358	-376.885
1.71371	-396.819
1.71383	-369.754
1.71395	-379.688
1.71407	-411.623
1.71419	-432.557
1.71431	-395.492
1.71444	-417.426
1.71456	-429.361
1.71468	-441.295
1.7148	-440.23
1.71492	-476.164
1.71505	-506.099
1.71517	-495.033
1.71529	-490.968
1.71541	-479.902
1.71553	-503.836
1.71566	-520.771
1.71578	-500.705
1.7159	-509.64
1.71602	-545.574
1.71614	-557.509
1.71627	-567.443
1.71639	-535.378
1.71651	-538.312
1.71663	-573.247
1.71676	-573.181
1.71688	-568.116
1.717	-568.05
1.71712	-578.985
1.71724	-589.919
1.71737	-617.854
1.71749	-627.788
1.71761	-583.723
1.71773	-613.657
1.71786	-622.592
1.71798	-638.526
1.7181	-664.461
1.71822	-627.395
1.71835	-663.33
1.71847	-628.264
1.71859	-655.199
1.71871	-657.133
1.71884	-646.068
1.71896	-658.002
1.71908	-691.937
1.7192	-721.871
1.71933	-683.806
1.71945	-677.74
1.71957	-684.675
1.7197	-732.609
1.71982	-699.544
1.71994	-688.478
1.72006	-705.413
1.72019	-691.347
1.72031	-691.282
1.72043	-699.216
1.72055	-748.151
1.72068	-755.085
1.7208	-752.02
1.72092	-734.954
1.72105	-731.889
1.72117	-754.823
1.72129	-774.758
1.72141	-722.692
1.72154	-777.627
1.72166	-760.561
1.72178	-748.496
1.72191	-764.43
1.72203	-798.365
1.72215	-785.299
1.72228	-769.233
1.7224	-754.168
1.72252	-802.102
1.72265	-782.037
1.72277	-781.971
1.72289	-766.906
1.72302	-796.84
1.72314	-791.775
1.72326	-803.709
1.72338	-818.644
1.72351	-846.578
1.72363	-773.513
1.72375	-831.447
1.72388	-827.382
1.724	-818.316
1.72413	-802.251
1.72425	-802.185
1.72437	-821.12
1.7245	-820.054
1.72462	-826.989
1.72474	-820.923
1.72487	-849.858
1.72499	-785.792
1.72511	-817.727
1.72524	-848.661
1.72536	-860.596
1.72548	-870.53
1.72561	-794.465
1.72573	-878.399
1.72585	-864.334
1.72598	-860.268
1.7261	-888.203
1.72623	-848.137
1.72635	-870.072
1.72647	-893.006
1.7266	-867.941
1.72672	-850.875
1.72684	-870.81
1.72697	-857.744
1.72709	-848.679
1.72722	-858.613
1.72734	-881.548
1.72746	-838.482
1.72759	-915.417
1.72771	-871.351
1.72784	-851.286
1.72796	-899.22
1.72808	-879.155
1.72821	-876.089
1.72833	-890.023
1.72846	-900.958
1.72858	-866.893
1.7287	-858.827
1.72883	-915.761
1.72895	-889.696
1.72908	-896.63
1.7292	-860.565
1.72932	-891.5
1.72945	-880.434
1.72957	-921.368
1.7297	-898.303
1.72982	-926.237
1.72995	-944.172
1.73007	-912.106
1.73019	-872.041
1.73032	-904.975
1.73044	-936.91
1.73057	-897.844
1.73069	-932.779
1.73082	-914.713
1.73094	-946.648
1.73107	-902.582
1.73119	-918.517
1.73131	-915.451
1.73144	-912.386
1.73156	-918.32
1.73169	-949.255
1.73181	-931.189
1.73194	-933.124
1.73206	-921.058
1.73219	-864.993
1.73231	-929.927
1.73244	-916.862
1.73256	-915.796
1.73269	-956.731
1.73281	-910.665
1.73293	-903.6
1.73306	-938.534
1.73318	-919.469
1.73331	-945.403
1.73343	-906.338
1.73356	-943.272
1.73368	-930.207
1.73381	-954.141
1.73393	-914.076
1.73406	-917.01
1.73418	-931.945
1.73431	-919.879
1.73443	-919.814
1.73456	-911.748
1.73468	-928.683
1.73481	-948.617
1.73493	-898.552
1.73506	-934.486
1.73518	-933.421
1.73531	-908.355
1.73543	-941.29
1.73556	-912.224
1.73568	-908.158
1.73581	-939.093
1.73593	-956.027
1.73606	-924.962
1.73619	-938.896
1.73631	-932.831
1.73644	-943.766
1.73656	-921.7
1.73669	-919.634
1.73681	-929.569
1.73694	-913.503
1.73706	-930.438
1.73719	-919.372
1.73731	-924.307
1.73744	-957.241
1.73756	-942.176
1.73769	-930.11
1.73782	-922.045
1.73794	-922.979
1.73807	-959.914
1.73819	-932.848
1.73832	-953.783
1.73844	-935.717
1.73857	-941.652
1.73869	-954.586
1.73882	-939.521
1.73895	-946.455
1.73907	-964.39
1.7392	-928.324
1.73932	-960.259
1.73945	-906.193
1.73957	-960.128
1.7397	-941.062
1.73983	-935.997
1.73995	-915.931
1.74008	-927.866
1.7402	-932.8
1.74033	-905.735
1.74046	-943.669
1.74058	-942.604
1.74071	-916.538
1.74083	-946.473
1.74096	-925.407
1.74109	-914.342
1.74121	-926.276
1.74134	-941.211
1.74146	-915.145
1.74159	-906.08
1.74172	-914.014
1.74184	-872.949
1.74197	-902.883
1.74209	-919.818
1.74222	-913.752
1.74235	-942.687
1.74247	-909.621
1.7426	-980.556
1.74273	-910.49
1.74285	-917.424
1.74298	-922.359
1.7431	-940.294
1.74323	-934.228
1.74336	-911.163
1.74348	-929.097
1.74361	-921.031
1.74374	-922.966
1.74386	-945.9
1.74399	-931.835
1.74412	-951.769
1.74424	-911.704
1.74437	-939.638
1.7445	-911.573
1.74462	-925.507
1.74475	-950.442
1.74488	-926.376
1.745	-924.311
1.74513	-959.245
1.74526	-920.18
1.74538	-894.114
1.74551	-887.049
1.74564	-900.983
1.74576	-905.918
1.74589	-894.852
1.74602	-910.787
1.74614	-888.721
1.74627	-920.656
1.7464	-928.59
1.74652	-926.525
1.74665	-925.459
1.74678	-928.394
1.7469	-904.328
1.74703	-927.263
1.74716	-898.197
1.74728	-918.132
1.74741	-916.066
1.74754	-918.001
1.74767	-908.935
1.74779	-894.87
1.74792	-931.804
1.74805	-899.739
1.74817	-900.673
1.7483	-894.608
1.74843	-899.542
1.74856	-880.477
1.74868	-916.411
1.74881	-905.346
1.74894	-917.28
1.74906	-919.215
1.74919	-909.149
1.74932	-907.084
1.74945	-888.018
1.74957	-925.953
1.7497	-861.887
1.74983	-930.822
1.74996	-888.756
1.75008	-898.69
1.75021	-868.625
1.75034	-917.559
1.75047	-889.494
1.75059	-898.428
1.75072	-885.363
1.75085	-907.297
1.75098	-862.232
1.7511	-907.166
1.75123	-915.101
1.75136	-907.035
1.75149	-875.97
1.75161	-867.904
1.75174	-895.839
1.75187	-868.773
1.752	-873.708
1.75213	-891.642
1.75225	-880.577
1.75238	-888.511
1.75251	-878.446
1.75264	-906.38
1.75276	-906.315
1.75289	-921.249
1.75302	-886.184
1.75315	-858.118
1.75328	-898.053
1.7534	-896.987
1.75353	-883.922
1.75366	-897.856
1.75379	-851.791
1.75392	-862.725
1.75404	-867.66
1.75417	-887.594
1.7543	-863.529
1.75443	-858.463
1.75456	-903.398
1.75468	-845.332
1.75481	-879.267
1.75494	-847.201
1.75507	-866.136
1.7552	-860.07
1.75533	-822.005
1.75545	-861.939
1.75558	-895.874
1.75571	-844.808
1.75584	-870.743
1.75597	-859.677
1.7561	-885.612
1.75622	-878.546
1.75635	-863.481
1.75648	-844.415
1.75661	-828.35
1.75674	-891.284
1.75687	-849.219
1.757	-876.153
1.75712	-910.088
1.75725	-877.022
1.75738	-851.956
1.75751	-885.891
1.75764	-834.825
1.75777	-869.76
1.7579	-864.694
1.75802	-839.629
1.75815	-841.563
1.75828	-835.498
1.75841	-848.432
1.75854	-836.367
1.75867	-854.301
1.7588	-829.236
1.75893	-850.17
1.75905	-848.105
1.75918	-881.039
1.75931	-840.974
1.75944	-843.908
1.75957	-872.843
1.7597	-891.777
1.75983	-831.712
1.75996	-802.646
1.76009	-870.581
1.76021	-852.515
1.76034	-823.45
1.76047	-843.384
1.7606	-846.319
1.76073	-863.253
1.76086	-835.188
1.76099	-843.122
1.76112	-864.057
1.76125	-857.991
1.76138	-824.926
1.76151	-835.86
1.76164	-836.795
1.76176	-861.729
1.76189	-842.664
1.76202	-832.598
1.76215	-841.533
1.76228	-840.467
1.76241	-839.402
1.76254	-880.336
1.76267	-847.271
1.7628	-848.205
1.76293	-843.14
1.76306	-830.074
1.76319	-842.009
1.76332	-859.943
1.76345	-848.878
1.76358	-849.812
1.76371	-817.747
1.76384	-813.681
1.76397	-834.615
1.76409	-809.55
1.76422	-845.484
1.76435	-829.419
1.76448	-848.353
1.76461	-857.288
1.76474	-817.222
1.76487	-816.157
1.765	-840.091
1.76513	-842.026
1.76526	-828.96
1.76539	-841.895
1.76552	-802.829
1.76565	-850.764
1.76578	-848.698
1.76591	-832.633
1.76604	-843.567
1.76617	-820.502
1.7663	-795.436
1.76643	-826.371
1.76656	-813.305
1.76669	-802.24
1.76682	-826.174
1.76695	-792.109
1.76708	-820.043
1.76721	-812.978
1.76734	-794.912
1.76747	-817.847
1.7676	-786.781
1.76773	-813.716
1.76786	-816.65
1.76799	-801.585
1.76812	-792.519
1.76825	-790.454
1.76838	-796.388
1.76851	-811.323
1.76865	-815.257
1.76878	-831.192
1.76891	-822.126
1.76904	-823.061
1.76917	-819.995
1.7693	-799.93
1.76943	-815.864
1.76956	-808.799
1.76969	-789.733
1.76982	-825.668
1.76995	-805.602
1.77008	-822.537
1.77021	-784.471
1.77034	-800.406
1.77047	-808.34
1.7706	-826.275
1.77073	-824.209
1.77086	-788.144
1.771	-798.078
1.77113	-810.013
1.77126	-794.947
1.77139	-774.881
1.77152	-804.816
1.77165	-794.75
1.77178	-808.685
1.77191	-793.62
1.77204	-805.554
1.77217	-766.489
1.7723	-770.423
1.77243	-817.357
1.77257	-794.292
1.7727	-823.226
1.77283	-798.161
1.77296	-790.095
1.77309	-801.03
1.77322	-785.964
1.77335	-797.899
1.77348	-773.833
1.77361	-830.768
1.77375	-774.702
1.77388	-787.637
1.77401	-811.571
1.77414	-745.506
1.77427	-800.44
1.7744	-780.375
1.77453	-772.309
1.77466	-806.244
1.7748	-790.178
1.77493	-784.113
1.77506	-763.047
1.77519	-792.982
1.77532	-765.916
1.77545	-784.851
1.77558	-796.785
1.77571	-763.72
1.77585	-766.654
1.77598	-785.589
1.77611	-771.523
1.77624	-805.458
1.77637	-768.392
1.7765	-812.327
1.77664	-783.261
1.77677	-764.196
1.7769	-826.13
1.77703	-796.065
1.77716	-789.999
1.77729	-727.934
1.77743	-782.868
1.77756	-741.803
1.77769	-762.737
1.77782	-761.672
1.77795	-758.606
1.77809	-777.541
1.77822	-760.475
1.77835	-748.41
1.77848	-756.344
1.77861	-758.279
1.77874	-755.213
1.77888	-768.148
1.77901	-746.082
1.77914	-755.016
1.77927	-774.951
1.7794	-770.885
1.77954	-770.82
1.77967	-798.754
1.7798	-754.689
1.77993	-753.623
1.78007	-771.558
1.7802	-742.492
1.78033	-786.427
1.78046	-765.361
1.78059	-753.296
1.78073	-766.23
1.78086	-735.165
1.78099	-777.099
1.78112	-759.034
1.78126	-761.968
1.78139	-719.903
1.78152	-744.837
1.78165	-735.772
1.78179	-744.706
1.78192	-779.641
1.78205	-750.575
1.78218	-743.51
1.78232	-765.444
1.78245	-790.379
1.78258	-766.313
1.78271	-771.248
1.78285	-721.182
1.78298	-745.117
1.78311	-748.051
1.78324	-715.986
1.78338	-785.92
1.78351	-752.855
1.78364	-730.789
1.78377	-718.724
1.78391	-751.658
1.78404	-775.593
1.78417	-762.527
1.78431	-762.462
1.78444	-731.396
1.78457	-750.331
1.7847	-765.265
1.78484	-754.2
1.78497	-758.134
1.7851	-736.069
1.78524	-727.003
1.78537	-744.938
1.7855	-731.872
1.78564	-760.807
1.78577	-722.741
1.7859	-727.676
1.78603	-746.61
1.78617	-757.544
1.7863	-724.479
1.78643	-730.414
1.78657	-742.348
1.7867	-716.282
1.78683	-746.217
1.78697	-730.151
1.7871	-733.086
1.78723	-742.02
1.78737	-750.955
1.7875	-731.889
1.78763	-765.824
1.78777	-765.758
1.7879	-741.693
1.78803	-746.627
1.78817	-739.562
1.7883	-758.496
1.78843	-709.431
1.78857	-711.365
1.7887	-731.3
1.78884	-721.234
1.78897	-731.169
1.7891	-731.103
1.78924	-752.038
1.78937	-747.972
1.7895	-720.907
1.78964	-725.841
1.78977	-715.776
1.7899	-749.71
1.79004	-728.645
1.79017	-739.579
1.79031	-721.514
1.79044	-729.448
1.79057	-704.383
1.79071	-718.317
1.79084	-745.252
1.79098	-700.186
1.79111	-752.121
1.79124	-742.055
1.79138	-741.99
1.79151	-744.924
1.79164	-690.859
1.79178	-744.793
1.79191	-709.728
1.79205	-731.662
1.79218	-754.597
1.79232	-703.531
1.79245	-686.466
1.79258	-736.4
1.79272	-731.335
1.79285	-721.269
1.79299	-713.204
1.79312	-718.138
1.79325	-722.073
1.79339	-707.007
1.79352	-735.942
1.79366	-686.876
1.79379	-701.81
1.79393	-714.745
1.79406	-720.679
1.7942	-667.614
1.79433	-680.548
1.79446	-681.483
1.7946	-675.417
1.79473	-709.352
1.79487	-696.286
1.795	-684.221
1.79514	-695.155
1.79527	-707.09
1.79541	-744.024
1.79554	-688.959
1.79568	-706.893
1.79581	-717.828
1.79594	-708.762
1.79608	-677.697
1.79621	-690.631
1.79635	-725.566
1.79648	-698.5
1.79662	-727.435
1.79675	-667.369
1.79689	-677.304
1.79702	-727.238
1.79716	-683.173
1.79729	-694.107
1.79743	-685.042
1.79756	-685.976
1.7977	-698.911
1.79783	-691.845
1.79797	-688.78
1.7981	-693.714
1.79824	-728.649
1.79837	-679.583
1.79851	-728.518
1.79864	-694.452
1.79878	-691.387
1.79891	-726.321
1.79905	-729.256
1.79918	-714.19
1.79932	-703.125
1.79945	-695.059
1.79959	-713.994
1.79972	-687.928
1.79986	-685.863
1.8	-701.797
1.80013	-696.732
1.80027	-712.666
1.8004	-701.601
1.80054	-684.535
1.80067	-687.47
1.80081	-712.404
1.80094	-673.339
1.80108	-708.273
1.80121	-693.207
1.80135	-712.142
1.80149	-678.076
1.80162	-669.011
1.80176	-680.945
1.80189	-676.88
1.80203	-673.814
1.80216	-660.749
1.8023	-677.683
1.80244	-682.618
1.80257	-713.552
1.80271	-681.487
1.80284	-681.421
1.80298	-682.356
1.80311	-679.29
1.80325	-705.225
1.80339	-663.159
1.80352	-711.094
1.80366	-686.028
1.80379	-701.963
1.80393	-678.897
1.80407	-687.832
1.8042	-671.766
1.80434	-680.701
1.80447	-714.635
1.80461	-673.57
1.80475	-662.504
1.80488	-674.439
1.80502	-716.373
1.80515	-698.308
1.80529	-663.242
1.80543	-676.177
1.80556	-655.111
1.8057	-679.046
1.80584	-696.98
1.80597	-670.915
1.80611	-683.849
1.80625	-647.784
1.80638	-674.718
1.80652	-685.653
1.80665	-635.587
1.80679	-697.522
1.80693	-668.456
1.80706	-653.391
1.8072	-680.325
1.80734	-661.26
1.80747	-648.194
1.80761	-662.129
1.80775	-686.063
1.80788	-659.997
1.80802	-647.932
1.80816	-656.867
1.80829	-661.801
1.80843	-685.736
1.80857	-669.67
1.8087	-668.604
1.80884	-690.539
1.80898	-633.473
1.80911	-651.408
1.80925	-664.342
1.80939	-672.277
1.80952	-671.211
1.80966	-640.146
1.8098	-669.08
1.80993	-680.015
1.81007	-664.949
1.81021	-646.884
1.81035	-688.818
1.81048	-659.753
1.81062	-662.687
1.81076	-661.622
1.81089	-664.556
1.81103	-642.491
1.81117	-653.425
1.81131	-638.36
1.81144	-654.294
1.81158	-634.229
1.81172	-673.163
1.81185	-657.098
1.81199	-672.032
1.81213	-663.967
1.81227	-665.901
1.8124	-662.836
1.81254	-640.77
1.81268	-660.705
1.81282	-657.639
1.81295	-650.574
1.81309	-679.508
1.81323	-639.443
1.81337	-636.377
1.8135	-641.312
1.81364	-662.246
1.81378	-639.181
1.81392	-668.115
1.81405	-659.05
1.81419	-664.984
1.81433	-649.919
1.81447	-623.853
1.8146	-637.788
1.81474	-671.722
1.81488	-665.657
1.81502	-664.591
1.81516	-671.526
1.81529	-659.46
1.81543	-652.395
1.81557	-665.329
1.81571	-665.264
1.81584	-631.198
1.81598	-671.133
1.81612	-695.067
1.81626	-654.002
1.8164	-652.936
1.81653	-643.871
1.81667	-662.805
1.81681	-664.74
1.81695	-637.674
1.81709	-647.608
1.81722	-664.543
1.81736	-658.477
1.8175	-647.412
1.81764	-648.346
1.81778	-651.281
1.81792	-644.215
1.81805	-654.15
1.81819	-656.084
1.81833	-673.019
1.81847	-647.953
1.81861	-633.888
1.81875	-634.822
1.81888	-607.757
1.81902	-627.691
1.81916	-638.626
1.8193	-638.56
1.81944	-623.495
1.81958	-610.429
1.81971	-659.364
1.81985	-622.298
1.81999	-658.233
1.82013	-628.167
1.82027	-638.102
1.82041	-634.036
1.82055	-642.971
1.82068	-629.905
1.82082	-630.84
1.82096	-610.774
1.8211	-670.709
1.82124	-622.643
1.82138	-640.578
1.82152	-595.512
1.82166	-612.447
1.8218	-644.381
1.82193	-623.316
1.82207	-585.25
1.82221	-661.185
1.82235	-671.119
1.82249	-654.054
1.82263	-596.988
1.82277	-615.923
1.82291	-639.857
1.82305	-645.792
1.82319	-638.726
1.82332	-639.661
1.82346	-631.595
1.8236	-625.53
1.82374	-647.464
1.82388	-648.399
1.82402	-610.333
1.82416	-663.268
1.8243	-633.202
1.82444	-637.136
1.82458	-627.071
1.82472	-622.005
1.82486	-592.94
1.825	-619.874
1.82513	-629.809
1.82527	-644.743
1.82541	-645.678
1.82555	-627.612
1.82569	-622.547
1.82583	-637.481
1.82597	-624.416
1.82611	-642.35
1.82625	-632.285
1.82639	-624.219
1.82653	-611.154
1.82667	-618.088
1.82681	-605.023
1.82695	-613.957
1.82709	-600.892
1.82723	-583.826
1.82737	-617.761
1.82751	-612.695
1.82765	-595.63
1.82779	-598.564
1.82793	-617.499
1.82807	-636.433
1.82821	-628.368
1.82835	-619.302
1.82849	-609.237
1.82863	-608.171
1.82877	-640.106
1.82891	-629.04
1.82905	-612.975
1.82919	-597.909
1.82933	-611.844
1.82947	-608.778
1.82961	-618.713
1.82975	-578.647
1.82989	-614.582
1.83003	-624.516
1.83017	-606.451
1.83031	-618.385
1.83045	-581.32
1.83059	-622.254
1.83073	-580.189
1.83087	-591.123
1.83101	-596.058
1.83115	-625.992
1.83129	-599.927
1.83143	-588.861
1.83157	-573.796
1.83171	-577.73
1.83185	-631.665
1.83199	-605.599
1.83213	-608.534
1.83227	-610.468
1.83241	-598.402
1.83256	-597.337
1.8327	-589.271
1.83284	-593.206
1.83298	-623.14
1.83312	-626.075
1.83326	-628.009
1.8334	-607.944
1.83354	-614.878
1.83368	-585.813
1.83382	-600.747
1.83396	-562.682
1.8341	-618.616
1.83424	-609.551
1.83439	-623.485
1.83453	-627.42
1.83467	-608.354
1.83481	-599.289
1.83495	-589.223
1.83509	-600.158
1.83523	-593.092
1.83537	-621.027
1.83551	-603.961
1.83565	-612.896
1.8358	-590.83
1.83594	-580.765
1.83608	-586.699
1.83622	-598.634
1.83636	-590.568
1.8365	-568.503
1.83664	-611.437
1.83678	-618.372
1.83693	-589.306
1.83707	-581.241
1.83721	-561.175
1.83735	-590.11
1.83749	-576.044
1.83763	-595.979
1.83777	-582.913
1.83792	-623.848
1.83806	-612.782
1.8382	-595.717
1.83834	-587.651
1.83848	-606.586
1.83862	-561.52
1.83876	-596.455
1.83891	-584.389
1.83905	-584.324
1.83919	-587.258
1.83933	-596.193
1.83947	-570.127
1.83961	-608.062
1.83976	-570.996
1.8399	-595.93
1.84004	-595.865
1.84018	-599.799
1.84032	-583.734
1.84047	-583.668
1.84061	-565.603
1.84075	-566.537
1.84089	-565.472
1.84103	-565.406
1.84118	-602.341
1.84132	-586.275
1.84146	-598.21
1.8416	-579.144
1.84174	-580.079
1.84189	-565.013
1.84203	-559.948
1.84217	-572.882
1.84231	-551.817
1.84245	-566.751
1.8426	-567.686
1.84274	-585.62
1.84285	-575.828
1.84299	-574.171
1.84313	-569.607
1.84327	-580.14
1.84342	-578.769
1.84356	-582.988
1.8437	-573.925
1.84384	-597.404
1.84398	-597.885
1.84412	-609.565
1.84427	-628.069
1.84441	-618.006
1.84455	-641.942
1.84469	-671.878
1.84483	-676.815
1.84497	-673.751
1.84512	-666.688
1.84526	-656.624
1.8454	-709.561
1.84554	-678.497
1.84568	-720.434
1.84583	-711.37
1.84597	-730.307
1.84611	-751.243
1.84625	-737.18
1.8464	-744.116
1.84654	-757.053
1.84668	-776.989
1.84682	-772.926
1.84696	-790.862
1.84711	-805.799
1.84725	-786.735
1.84739	-786.672
1.84753	-807.608
1.84768	-803.545
1.84782	-832.481
1.84796	-847.417
1.8481	-830.354
1.84824	-853.29
1.84839	-849.227
1.84853	-874.163
1.84867	-859.1
1.84881	-885.036
1.84896	-867.973
1.8491	-880.909
1.84924	-888.846
1.84939	-925.782
1.84953	-892.719
1.84967	-930.655
1.84981	-912.592
1.84996	-911.528
1.8501	-933.465
1.85024	-943.401
1.85038	-927.338
1.85053	-958.274
1.85067	-948.211
1.85081	-951.147
1.85096	-954.084
1.8511	-965.02
1.85124	-977.957
1.85138	-961.893
1.85153	-961.829
1.85167	-983.766
1.85181	-994.702
1.85196	-998.639
1.8521	-1008.58
1.85224	-1003.51
1.85239	-988.448
1.85253	-1006.38
1.85267	-1006.32
1.85282	-1035.26
1.85296	-1012.19
1.8531	-1022.13
1.85325	-1030.07
1.85339	-1032
1.85353	-1042.94
1.85368	-1040.88
1.85382	-1043.81
1.85396	-1050.75
1.85411	-1032.69
1.85425	-1069.62
1.85439	-1049.56
1.85454	-1064.5
1.85468	-1061.43
1.85482	-1065.37
1.85497	-1096.3
1.85511	-1069.24
1.85525	-1069.18
1.8554	-1099.11
1.85554	-1085.05
1.85568	-1101.99
1.85583	-1075.92
1.85597	-1100.86
1.85612	-1111.8
1.85626	-1119.73
1.8564	-1110.67
1.85655	-1118.61
1.85669	-1114.54
1.85683	-1121.48
1.85698	-1107.42
1.85712	-1130.35
1.85727	-1127.29
1.85741	-1135.23
1.85755	-1141.16
1.8577	-1123.1
1.85784	-1140.03
1.85799	-1135.97
1.85813	-1151.91
1.85827	-1153.84
1.85842	-1161.78
1.85856	-1136.72
1.85871	-1155.65
1.85885	-1146.59
1.859	-1159.53
1.85914	-1157.46
1.85928	-1159.4
1.85943	-1148.34
1.85957	-1161.27
1.85972	-1167.21
1.85986	-1161.15
1.86001	-1171.08
1.86015	-1172.02
1.86029	-1170.95
1.86044	-1161.89
1.86058	-1174.83
1.86073	-1185.76
1.86087	-1192.7
1.86102	-1188.64
1.86116	-1181.57
1.86131	-1191.51
1.86145	-1187.45
1.8616	-1194.38
1.86174	-1198.32
1.86188	-1191.26
1.86203	-1198.19
1.86217	-1211.13
1.86232	-1177.07
1.86246	-1201
1.86261	-1205.94
1.86275	-1219.87
1.8629	-1215.81
1.86304	-1221.75
1.86319	-1219.68
1.86333	-1206.62
1.86348	-1223.56
1.86362	-1217.49
1.86377	-1222.43
1.86391	-1202.37
1.86406	-1222.3
1.8642	-1206.24
1.86435	-1210.18
1.86449	-1215.11
1.86464	-1213.05
1.86478	-1220.99
1.86493	-1227.92
1.86507	-1226.86
1.86522	-1234.79
1.86536	-1221.73
1.86551	-1224.67
1.86566	-1243.6
1.8658	-1232.54
1.86595	-1240.48
1.86609	-1243.41
1.86624	-1239.35
1.86638	-1232.29
1.86653	-1240.22
1.86667	-1238.16
1.86682	-1242.1
1.86696	-1248.03
1.86711	-1246.97
1.86726	-1256.91
1.8674	-1248.84
1.86755	-1251.78
1.86769	-1230.72
1.86784	-1227.65
1.86798	-1247.59
1.86813	-1233.52
1.86828	-1250.46
1.86842	-1233.4
1.86857	-1249.33
1.86871	-1270.27
1.86886	-1258.21
1.869	-1247.14
1.86915	-1260.08
1.8693	-1253.02
1.86944	-1249.95
1.86959	-1236.89
1.86973	-1265.83
1.86988	-1258.76
1.87003	-1262.7
1.87017	-1247.64
1.87032	-1260.57
1.87046	-1257.51
1.87061	-1264.44
1.87076	-1266.38
1.8709	-1273.32
1.87105	-1252.25
1.8712	-1263.19
1.87134	-1243.13
1.87149	-1264.06
1.87163	-1252
1.87178	-1270.94
1.87193	-1280.87
1.87207	-1259.81
1.87222	-1258.75
1.87237	-1276.68
1.87251	-1258.62
1.87266	-1271.56
1.87281	-1255.49
1.87295	-1273.43
1.8731	-1269.36
1.87325	-1257.3
1.87339	-1253.24
1.87354	-1268.17
1.87369	-1259.11
1.87383	-1269.05
1.87398	-1274.98
1.87413	-1284.92
1.87427	-1270.86
1.87442	-1259.79
1.87457	-1279.73
1.87471	-1255.67
1.87486	-1284.6
1.87501	-1267.54
1.87515	-1269.48
1.8753	-1266.41
1.87545	-1263.35
1.87559	-1266.28
1.87574	-1283.22
1.87589	-1256.16
1.87604	-1274.09
1.87618	-1265.03
1.87633	-1266.97
1.87648	-1260.9
1.87662	-1289.84
1.87677	-1268.78
1.87692	-1268.71
1.87707	-1264.65
1.87721	-1295.59
1.87736	-1287.52
1.87751	-1268.46
1.87766	-1286.4
1.8778	-1262.33
1.87795	-1271.27
1.8781	-1268.21
1.87824	-1284.14
1.87839	-1261.08
1.87854	-1278.01
1.87869	-1262.95
1.87883	-1271.89
1.87898	-1272.82
1.87913	-1287.76
1.87928	-1280.7
1.87943	-1270.63
1.87957	-1262.57
1.87972	-1273.51
1.87987	-1285.44
1.88002	-1259.38
1.88016	-1275.32
1.88031	-1276.25
1.88046	-1284.19
1.88061	-1261.13
1.88076	-1283.06
1.8809	-1258
1.88105	-1280.93
1.8812	-1262.87
1.88135	-1292.81
1.88149	-1283.74
1.88164	-1275.68
1.88179	-1245.62
1.88194	-1251.55
1.88209	-1272.49
1.88224	-1280.43
1.88238	-1263.36
1.88253	-1274.3
1.88268	-1260.24
1.88283	-1268.17
1.88298	-1279.11
1.88312	-1280.05
1.88327	-1282.98
1.88342	-1269.92
1.88357	-1276.85
1.88372	-1255.79
1.88387	-1276.73
1.88401	-1269.66
1.88416	-1267.6
1.88431	-1264.54
1.88446	-1280.47
1.88461	-1266.41
1.88476	-1274.35
1.88491	-1252.28
1.88505	-1253.22
1.8852	-1262.16
1.88535	-1252.09
1.8855	-1254.03
1.88565	-1263.97
1.8858	-1269.9
1.88595	-1259.84
1.88609	-1249.77
1.88624	-1261.71
1.88639	-1287.65
1.88654	-1273.58
1.88669	-1255.52
1.88684	-1256.46
1.88699	-1272.39
1.88714	-1265.33
1.88729	-1254.27
1.88743	-1259.2
1.88758	-1268.14
1.88773	-1264.08
1.88788	-1263.01
1.88803	-1256.95
1.88818	-1280.89
1.88833	-1259.82
1.88848	-1251.76
1.88863	-1259.7
1.88878	-1277.63
1.88893	-1257.57
1.88908	-1255.5
1.88922	-1253.44
1.88937	-1263.38
1.88952	-1252.31
1.88967	-1244.25
1.88982	-1252.19
1.88997	-1246.12
1.89012	-1245.06
1.89027	-1257
1.89042	-1268.93
1.89057	-1255.87
1.89072	-1262.81
1.89087	-1267.74
1.89102	-1240.68
1.89117	-1249.62
1.89132	-1261.55
1.89147	-1259.49
1.89162	-1254.42
1.89177	-1228.36
1.89192	-1264.3
1.89207	-1234.23
1.89222	-1248.17
1.89236	-1243.11
1.89251	-1254.04
1.89266	-1243.98
1.89281	-1239.92
1.89296	-1246.85
1.89311	-1264.79
1.89326	-1253.73
1.89341	-1260.66
1.89356	-1260.6
1.89371	-1257.54
1.89386	-1276.47
1.89401	-1247.41
1.89416	-1260.34
1.89431	-1242.28
1.89447	-1241.22
1.89462	-1252.15
1.89477	-1253.09
1.89492	-1233.03
1.89507	-1243.96
1.89522	-1230.9
1.89537	-1256.84
1.89552	-1226.77
1.89567	-1244.71
1.89582	-1249.65
1.89597	-1225.58
1.89612	-1239.52
1.89627	-1250.46
1.89642	-1233.39
1.89657	-1229.33
1.89672	-1260.26
1.89687	-1251.2
1.89702	-1229.14
1.89717	-1244.07
1.89732	-1256.01
1.89747	-1227.95
1.89762	-1228.88
1.89778	-1225.82
1.89793	-1228.76
1.89808	-1225.69
1.89823	-1237.63
1.89838	-1249.57
1.89853	-1228.5
1.89868	-1228.44
1.89883	-1226.38
1.89898	-1217.31
1.89913	-1238.25
1.89928	-1226.19
1.89943	-1249.12
1.89959	-1243.06
1.89974	-1237.99
1.89989	-1231.93
1.90004	-1247.87
1.90019	-1232.8
1.90034	-1219.74
1.90049	-1219.68
1.90064	-1235.61
1.9008	-1234.55
1.90095	-1222.49
1.9011	-1223.42
1.90125	-1226.36
1.9014	-1220.3
1.90155	-1213.23
1.9017	-1217.17
1.90185	-1232.11
1.90201	-1222.04
1.90216	-1224.98
1.90231	-1218.91
1.90246	-1210.85
1.90261	-1200.79
1.90276	-1211.72
1.90292	-1209.66
1.90307	-1218.6
1.90322	-1207.53
1.90337	-1202.47
1.90352	-1230.41
1.90367	-1212.34
1.90383	-1225.28
1.90398	-1214.22
1.90413	-1206.15
1.90428	-1225.09
1.90443	-1218.03
1.90458	-1201.96
1.90474	-1211.9
1.90489	-1215.83
1.90504	-1218.77
1.90519	-1220.71
1.90534	-1211.64
1.9055	-1210.58
1.90565	-1216.52
1.9058	-1201.45
1.90595	-1192.39
1.9061	-1211.33
1.90626	-1203.26
1.90641	-1202.2
1.90656	-1197.14
1.90671	-1208.07
1.90687	-1200.01
1.90702	-1195.95
1.90717	-1197.88
1.90732	-1186.82
1.90747	-1212.75
1.90763	-1198.69
1.90778	-1215.63
1.90793	-1216.56
1.90808	-1204.5
1.90824	-1203.44
1.90839	-1197.37
1.90854	-1205.31
1.9087	-1208.25
1.90885	-1205.18
1.909	-1200.12
1.90915	-1207.06
1.90931	-1193.99
1.90946	-1192.93
1.90961	-1188.87
1.90976	-1208.8
1.90992	-1189.74
1.91007	-1196.67
1.91022	-1198.61
1.91038	-1191.55
1.91053	-1189.48
1.91068	-1186.42
1.91083	-1185.36
1.91099	-1200.29
1.91114	-1197.23
1.91129	-1186.17
1.91145	-1182.1
1.9116	-1174.04
1.91175	-1189.98
1.91191	-1187.91
1.91206	-1188.85
1.91221	-1195.79
1.91236	-1185.72
1.91252	-1179.66
1.91267	-1184.6
1.91282	-1187.53
1.91298	-1175.47
1.91313	-1180.4
1.91328	-1163.34
1.91344	-1173.28
1.91359	-1179.21
1.91374	-1175.15
1.9139	-1170.09
1.91405	-1180.02
1.91421	-1176.96
1.91436	-1184.9
1.91451	-1157.83
1.91467	-1174.77
1.91482	-1178.71
1.91497	-1183.64
1.91513	-1184.58
1.91528	-1170.52
1.91543	-1185.45
1.91559	-1163.39
1.91574	-1173.32
1.9159	-1172.26
1.91605	-1180.2
1.9162	-1179.13
1.91636	-1156.07
1.91651	-1157.01
1.91666	-1180.94
1.91682	-1173.88
1.91697	-1162.82
1.91713	-1164.75
1.91728	-1170.69
1.91744	-1156.63
1.91759	-1176.56
1.91774	-1154.5
1.9179	-1179.44
1.91805	-1160.37
1.91821	-1164.31
1.91836	-1167.24
1.91851	-1153.18
1.91867	-1153.12
1.91882	-1166.05
1.91898	-1164.99
1.91913	-1164.93
1.91929	-1153.86
1.91944	-1154.8
1.91959	-1170.74
1.91975	-1158.67
1.9199	-1146.61
1.92006	-1147.55
1.92021	-1142.48
1.92037	-1165.42
1.92052	-1138.36
1.92068	-1136.29
1.92083	-1155.23
1.92099	-1146.17
1.92114	-1128.1
1.9213	-1147.04
1.92145	-1146.97
1.9216	-1144.91
1.92176	-1151.85
1.92191	-1135.78
1.92207	-1142.72
1.92222	-1138.66
1.92238	-1158.59
1.92253	-1158.53
1.92269	-1133.47
1.92284	-1132.4
1.923	-1134.34
1.92315	-1147.28
1.92331	-1139.21
1.92346	-1137.15
1.92362	-1140.09
1.92377	-1145.02
1.92393	-1129.96
1.92409	-1132.89
1.92424	-1130.83
1.9244	-1136.77
1.92455	-1141.7
1.92471	-1147.64
1.92486	-1121.58
1.92502	-1144.51
1.92517	-1119.45
1.92533	-1134.39
1.92548	-1126.32
1.92564	-1148.26
1.92579	-1133.2
1.92595	-1118.13
1.92611	-1121.07
1.92626	-1121.01
1.92642	-1130.94
1.92657	-1126.88
1.92673	-1125.81
1.92688	-1127.75
1.92704	-1105.69
1.92719	-1102.62
1.92735	-1114.56
1.92751	-1111.5
1.92766	-1111.43
1.92782	-1118.37
1.92797	-1104.31
1.92813	-1099.24
1.92829	-1116.18
1.92844	-1100.12
1.9286	-1099.05
1.92875	-1115.99
1.92891	-1106.93
1.92907	-1104.86
1.92922	-1118.8
1.92938	-1095.73
1.92953	-1108.67
1.92969	-1102.61
1.92985	-1108.54
1.93	-1117.48
1.93016	-1106.42
1.93032	-1091.35
1.93047	-1095.29
1.93063	-1103.23
1.93078	-1092.16
1.93094	-1091.1
1.9311	-1093.04
1.93125	-1113.97
1.93141	-1111.91
1.93157	-1094.85
1.93172	-1095.78
1.93188	-1096.72
1.93204	-1105.66
1.93219	-1092.59
1.93235	-1092.53
1.93251	-1093.46
1.93266	-1088.4
1.93282	-1081.34
1.93298	-1089.27
1.93313	-1086.21
1.93329	-1100.15
1.93345	-1080.08
1.9336	-1099.02
1.93376	-1076.96
1.93392	-1100.89
1.93407	-1089.83
1.93423	-1074.77
1.93439	-1078.7
1.93454	-1086.64
1.9347	-1080.58
1.93486	-1078.51
1.93502	-1064.45
1.93517	-1077.38
1.93533	-1079.32
1.93549	-1076.26
1.93564	-1070.19
1.9358	-1086.13
1.93596	-1079.07
1.93612	-1071
1.93627	-1079.94
1.93643	-1082.88
1.93659	-1079.81
1.93675	-1074.75
1.9369	-1082.69
1.93706	-1072.62
1.93722	-1064.56
1.93738	-1073.5
1.93753	-1073.43
1.93769	-1073.37
1.93785	-1065.3
1.93801	-1077.24
1.93816	-1053.18
1.93832	-1082.11
1.93848	-1086.05
1.93864	-1072.99
1.93879	-1054.92
1.93895	-1074.86
1.93911	-1057.8
1.93927	-1057.73
1.93942	-1051.67
1.93958	-1063.61
1.93974	-1058.54
1.9399	-1059.48
1.94006	-1050.42
1.94021	-1066.35
1.94037	-1060.29
1.94053	-1053.22
1.94069	-1060.16
1.94085	-1054.1
1.941	-1066.03
1.94116	-1077.97
1.94132	-1059.91
1.94148	-1050.84
1.94164	-1046.78
1.9418	-1053.72
1.94195	-1040.65
1.94211	-1043.59
1.94227	-1060.53
1.94243	-1047.46
1.94259	-1053.4
1.94275	-1052.34
1.9429	-1036.27
1.94306	-1053.21
1.94322	-1051.15
1.94338	-1054.08
1.94354	-1037.02
1.9437	-1038.95
1.94386	-1048.89
1.94401	-1040.83
1.94417	-1036.76
1.94433	-1049.7
1.94449	-1023.64
1.94465	-1024.57
1.94481	-1033.51
1.94497	-1027.45
1.94513	-1025.38
1.94528	-1041.32
1.94544	-1042.26
1.9456	-1028.19
1.94576	-1019.13
1.94592	-1027.07
1.94608	-1049
1.94624	-1027.94
1.9464	-1027.87
1.94656	-1022.81
1.94672	-1033.75
1.94687	-1032.68
1.94703	-1017.62
1.94719	-1031.56
1.94735	-1009.49
1.94751	-1023.43
1.94767	-1025.37
1.94783	-1017.3
1.94799	-1020.24
1.94815	-1010.18
1.94831	-1020.11
1.94847	-1026.05
1.94863	-1012.99
1.94879	-1030.92
1.94895	-1019.86
1.9491	-1019.79
1.94926	-1019.73
1.94942	-1020.67
1.94958	-998.604
1.94974	-1005.54
1.9499	-1013.48
1.95006	-1006.41
1.95022	-1016.35
1.95038	-1000.29
1.95054	-1008.22
1.9507	-1006.16
1.95086	-1008.1
1.95102	-1006.03
1.95118	-999.969
1.95134	-1003.91
1.9515	-997.842
1.95166	-993.778
1.95182	-1009.71
1.95198	-1007.65
1.95214	-1001.59
1.9523	-1004.52
1.95246	-996.461
1.95262	-1011.4
1.95278	-987.334
1.95294	-993.27
1.9531	-988.207
1.95326	-977.143
1.95342	-998.08
1.95358	-975.016
1.95374	-998.953
1.9539	-973.889
1.95406	-984.826
1.95422	-984.762
1.95438	-987.698
1.95454	-978.635
1.95471	-977.572
1.95487	-993.508
1.95503	-989.444
1.95519	-996.381
1.95535	-988.317
1.95551	-965.254
1.95567	-981.19
1.95583	-979.127
1.95599	-977.063
1.95615	-977
1.95631	-971.936
1.95647	-974.873
1.95663	-964.809
1.95679	-976.746
1.95695	-975.682
1.95712	-973.619
1.95728	-965.555
1.95744	-979.492
1.9576	-958.428
1.95776	-972.365
1.95792	-957.301
1.95808	-974.238
1.95824	-959.174
1.9584	-972.11
1.95856	-951.047
1.95873	-963.983
1.95889	-963.92
1.95905	-974.856
1.95921	-959.793
1.95937	-942.729
1.95953	-955.666
1.95969	-958.602
1.95986	-954.539
1.96002	-944.475
1.96018	-960.412
1.96034	-951.348
1.9605	-967.285
1.96066	-953.221
1.96082	-946.158
1.96099	-957.094
1.96115	-945.031
1.96131	-961.967
1.96147	-956.904
1.96163	-951.84
1.96179	-955.776
1.96196	-954.713
1.96212	-969.65
1.96228	-953.586
1.96244	-945.522
1.9626	-949.459
1.96276	-937.395
1.96293	-949.332
1.96309	-942.268
1.96325	-948.205
1.96341	-945.141
1.96357	-935.078
1.96374	-939.014
1.9639	-929.951
1.96406	-933.887
1.96422	-941.824
1.96439	-938.76
1.96455	-937.697
1.96471	-917.633
1.96487	-941.57
1.96503	-928.506
1.9652	-928.443
1.96536	-921.379
1.96552	-919.316
1.96568	-926.252
1.96585	-921.188
1.96601	-931.125
1.96617	-914.061
1.96633	-919.998
1.9665	-926.934
1.96666	-926.871
1.96682	-924.807
1.96698	-920.744
1.96715	-914.68
1.96731	-912.617
1.96747	-909.553
1.96763	-921.49
1.9678	-911.426
1.96796	-909.363
1.96812	-904.299
1.96829	-904.236
1.96845	-919.172
1.96861	-921.109
1.96877	-916.045
1.96894	-896.982
1.9691	-909.918
1.96926	-905.855
1.96943	-913.791
1.96959	-899.727
1.96975	-911.664
1.96992	-894.6
1.97008	-908.537
1.97024	-902.473
1.97041	-905.41
1.97057	-894.346
1.97073	-899.283
1.97089	-891.219
1.97106	-893.156
1.97122	-900.092
1.97139	-901.029
1.97155	-892.965
1.97171	-884.902
1.97188	-890.838
1.97204	-887.775
1.9722	-902.711
1.97237	-895.648
1.97253	-880.584
1.97269	-892.521
1.97286	-892.457
1.97302	-885.394
1.97318	-897.33
1.97335	-883.266
1.97351	-880.203
1.97368	-889.139
1.97384	-879.076
1.974	-882.012
1.97417	-885.949
1.97433	-877.885
1.97449	-874.822
1.97466	-888.758
1.97482	-881.695
1.97499	-884.631
1.97515	-891.568
1.97531	-863.504
1.97548	-869.441
1.97564	-874.377
1.97581	-877.314
1.97597	-866.25
1.97614	-868.187
1.9763	-860.123
1.97646	-872.06
1.97663	-856.996
1.97679	-870.933
1.97696	-864.869
1.97712	-871.805
1.97729	-861.742
1.97745	-864.678
1.97761	-848.615
1.97778	-864.551
1.97794	-857.488
1.97811	-854.424
1.97827	-860.361
1.97844	-868.297
1.9786	-856.234
1.97877	-855.17
1.97893	-848.107
1.9791	-849.043
1.97926	-841.98
1.97943	-863.916
1.97959	-856.853
1.97976	-858.789
1.97992	-847.726
1.98009	-854.662
1.98025	-844.599
1.98042	-844.535
1.98058	-855.472
1.98075	-852.408
1.98091	-847.345
1.98108	-854.281
1.98124	-856.218
1.98141	-843.154
1.98157	-836.09
1.98174	-834.027
1.9819	-845.963
1.98207	-844.9
1.98223	-842.836
1.9824	-839.773
1.98256	-837.709
1.98273	-832.646
1.98289	-834.582
1.98306	-838.519
1.98322	-824.455
1.98339	-842.392
1.98355	-840.328
1.98372	-823.265
1.98389	-834.201
1.98405	-834.138
1.98422	-832.074
1.98438	-844.011
1.98455	-819.947
1.98471	-825.884
1.98488	-827.82
1.98505	-821.756
1.98521	-816.693
1.98538	-816.629
1.98554	-822.566
1.98571	-820.502
1.98588	-823.439
1.98604	-816.375
1.98621	-820.312
1.98637	-819.248
1.98654	-814.185
1.98671	-800.121
1.98687	-810.058
1.98704	-816.994
1.9872	-807.931
1.98737	-810.867
1.98754	-809.804
1.9877	-807.74
1.98787	-810.677
1.98803	-814.613
1.9882	-794.55
1.98837	-808.486
1.98853	-807.423
1.9887	-801.359
1.98887	-788.295
1.98903	-802.232
1.9892	-813.168
1.98937	-788.105
1.98953	-794.041
1.9897	-803.978
1.98987	-786.914
1.99003	-791.851
1.9902	-797.787
1.99037	-802.724
1.99053	-793.66
1.9907	-785.597
1.99087	-787.533
1.99103	-787.47
1.9912	-803.406
1.99137	-794.343
1.99153	-785.279
1.9917	-786.216
1.99187	-776.152
1.99203	-782.089
1.9922	-771.025
1.99237	-787.962
1.99254	-775.898
1.9927	-780.834
1.99287	-782.771
1.99304	-775.707
1.9932	-780.644
1.99337	-778.58
1.99354	-771.517
1.99371	-769.453
1.99387	-775.39
1.99404	-755.326
1.99421	-782.263
1.99438	-777.199
1.99454	-785.136
1.99471	-768.072
1.99488	-768.009
1.99505	-772.945
1.99521	-771.882
1.99538	-766.818
1.99555	-766.755
1.99572	-763.691
1.99588	-757.628
1.99602	-750.98
1.99618	-750.725
1.99635	-748.17
1.99652	-746.322
1.99668	-741.793
1.99685	-749.187
1.99702	-755.308
1.99718	-755.542
1.99735	-765.957
1.99752	-772.708
1.99769	-784.91
1.99785	-803.243
1.99802	-808.227
1.99819	-820.211
1.99835	-831.195
1.99852	-827.18
1.99869	-849.164
1.99886	-858.148
1.99902	-856.132
1.99919	-865.116
1.99936	-886.1
1.99953	-889.084
1.99969	-886.068
1.99986	-902.053
2.00003	-914.037
2.0002	-930.021
2.00036	-916.005
2.00053	-939.989
2.0007	-942.973
2.00087	-953.957
2.00104	-955.942
2.0012	-961.926
2.00137	-970.91
2.00154	-978.894
2.00171	-992.878
2.00187	-992.862
2.00204	-1001.85
2.00221	-999.831
2.00238	-1003.81
2.00255	-1009.8
2.00271	-1031.78
2.00288	-1037.77
2.00305	-1031.75
2.00322	-1045.74
2.00339	-1052.72
2.00356	-1046.7
2.00372	-1061.69
2.00389	-1062.67
2.00406	-1073.66
2.00423	-1070.64
2.0044	-1083.62
2.00457	-1082.61
2.00473	-1092.59
2.0049	-1094.58
2.00507	-1109.56
2.00524	-1113.55
2.00541	-1097.53
2.00558	-1117.51
2.00575	-1119.5
2.00591	-1131.48
2.00608	-1122.47
2.00625	-1138.45
2.00642	-1144.43
2.00659	-1141.42
2.00676	-1149.4
2.00693	-1160.39
2.0071	-1155.37
2.00726	-1169.35
2.00743	-1158.34
2.0076	-1168.32
2.00777	-1176.31
2.00794	-1171.29
2.00811	-1180.28
2.00828	-1181.26
2.00845	-1198.24
2.00862	-1194.23
2.00879	-1201.21
2.00895	-1198.2
2.00912	-1205.18
2.00929	-1202.16
2.00946	-1215.15
2.00963	-1208.13
2.0098	-1219.12
2.00997	-1221.1
2.01014	-1222.08
2.01031	-1225.07
2.01048	-1238.05
2.01065	-1236.04
2.01082	-1234.02
2.01099	-1243.01
2.01116	-1252.99
2.01133	-1250.97
2.0115	-1255.96
2.01167	-1255.94
2.01184	-1262.93
2.01201	-1262.91
2.01218	-1269.89
2.01235	-1252.88
2.01252	-1260.86
2.01268	-1279.85
2.01285	-1271.83
2.01302	-1272.82
2.01319	-1282.8
2.01336	-1291.78
2.01353	-1281.77
2.0137	-1289.75
2.01387	-1280.74
2.01404	-1296.72
2.01421	-1292.7
2.01439	-1307.69
2.01456	-1313.67
2.01473	-1306.66
2.0149	-1296.64
2.01507	-1308.63
2.01524	-1306.61
2.01541	-1311.59
2.01558	-1318.58
2.01575	-1308.56
2.01592	-1303.55
2.01609	-1308.53
2.01626	-1314.51
2.01643	-1311.5
2.0166	-1309.48
2.01677	-1327.47
2.01694	-1326.45
2.01711	-1329.43
2.01728	-1329.42
2.01745	-1335.4
2.01762	-1337.39
2.01779	-1334.37
2.01797	-1336.36
2.01814	-1341.34
2.01831	-1338.32
2.01848	-1335.31
2.01865	-1352.29
2.01882	-1350.28
2.01899	-1344.26
2.01916	-1357.24
2.01933	-1353.23
2.0195	-1342.21
2.01968	-1350.2
2.01985	-1357.18
2.02002	-1352.17
2.02019	-1360.15
2.02036	-1357.13
2.02053	-1351.12
2.0207	-1354.1
2.02087	-1359.09
2.02105	-1362.07
2.02122	-1372.05
2.02139	-1356.04
2.02156	-1361.02
2.02173	-1367.01
2.0219	-1366.99
2.02207	-1359.97
2.02225	-1365.96
2.02242	-1373.94
2.02259	-1369.93
2.02276	-1373.91
2.02293	-1354.9
2.0231	-1376.88
2.02328	-1361.86
2.02345	-1382.85
2.02362	-1378.83
2.02379	-1372.82
2.02396	-1383.8
2.02414	-1380.78
2.02431	-1375.77
2.02448	-1380.75
2.02465	-1374.74
2.02482	-1377.72
2.025	-1378.71
2.02517	-1385.69
2.02534	-1374.67
2.02551	-1387.66
2.02568	-1376.64
2.02586	-1381.63
2.02603	-1386.61
2.0262	-1383.59
2.02637	-1381.58
2.02655	-1391.56
2.02672	-1380.55
2.02689	-1381.53
2.02706	-1392.51
2.02724	-1393.5
2.02741	-1387.48
2.02758	-1385.47
2.02775	-1396.45
2.02793	-1390.44
2.0281	-1388.42
2.02827	-1393.4
2.02844	-1397.39
2.02862	-1394.37
2.02879	-1390.36
2.02896	-1392.34
2.02913	-1400.32
2.02931	-1400.31
2.02948	-1388.29
2.02965	-1393.28
2.02983	-1395.26
2.03	-1395.25
2.03017	-1391.23
2.03035	-1396.21
2.03052	-1396.2
2.03069	-1396.18
2.03086	-1392.17
2.03104	-1389.15
2.03121	-1397.13
2.03138	-1395.12
2.03156	-1390.1
2.03173	-1405.09
2.0319	-1393.07
2.03208	-1392.05
2.03225	-1401.04
2.03242	-1398.02
2.0326	-1389.01
2.03277	-1399.99
2.03294	-1392.98
2.03312	-1395.96
2.03329	-1390.94
2.03347	-1407.93
2.03364	-1396.91
2.03381	-1398.9
2.03399	-1403.88
2.03416	-1396.86
2.03433	-1408.85
2.03451	-1391.83
2.03468	-1394.82
2.03486	-1395.8
2.03503	-1396.79
2.0352	-1397.77
2.03538	-1393.75
2.03555	-1394.74
2.03573	-1389.72
2.0359	-1413.71
2.03607	-1402.69
2.03625	-1386.67
2.03642	-1397.66
2.0366	-1400.64
2.03677	-1384.63
2.03694	-1400.61
2.03712	-1390.59
2.03729	-1400.58
2.03747	-1401.56
2.03764	-1397.55
2.03782	-1394.53
2.03799	-1400.52
2.03817	-1390.5
2.03834	-1390.48
2.03851	-1403.47
2.03869	-1396.45
2.03886	-1387.44
2.03904	-1407.42
2.03921	-1399.4
2.03939	-1393.39
2.03956	-1397.37
2.03974	-1397.36
2.03991	-1389.34
2.04009	-1395.33
2.04026	-1397.31
2.04044	-1392.29
2.04061	-1391.28
2.04079	-1390.26
2.04096	-1386.25
2.04114	-1394.23
2.04131	-1393.21
2.04149	-1385.2
2.04166	-1396.18
2.04184	-1384.17
2.04201	-1390.15
2.04219	-1392.13
2.04236	-1385.12
2.04254	-1395.1
2.04271	-1390.09
2.04289	-1392.07
2.04306	-1380.06
2.04324	-1392.04
2.04341	-1391.02
2.04359	-1382.01
2.04376	-1385.99
2.04394	-1372.98
2.04412	-1384.96
2.04429	-1387.94
2.04447	-1385.93
2.04464	-1381.91
2.04482	-1382.9
2.04499	-1381.88
2.04517	-1384.87
2.04535	-1378.85
2.04552	-1371.83
2.0457	-1397.82
2.04587	-1381.8
2.04605	-1380.79
2.04622	-1374.77
2.0464	-1356.75
2.04658	-1349.74
2.04675	-1361.72
2.04693	-1358.71
2.0471	-1378.69
2.04728	-1377.67
2.04746	-1368.66
2.04763	-1370.64
2.04781	-1368.63
2.04799	-1378.61
2.04816	-1367.6
2.04834	-1383.58
2.04851	-1368.56
2.04869	-1374.55
2.04887	-1376.53
2.04904	-1366.52
2.04922	-1366.5
2.0494	-1369.48
2.04957	-1374.47
2.04975	-1369.45
2.04993	-1376.44
2.0501	-1370.42
2.05028	-1376.41
2.05046	-1369.39
2.05063	-1367.37
2.05081	-1362.36
2.05099	-1363.34
2.05116	-1366.33
2.05134	-1359.31
2.05152	-1374.29
2.05169	-1370.28
2.05187	-1368.26
2.05205	-1362.25
2.05223	-1364.23
2.0524	-1367.21
2.05258	-1367.2
2.05276	-1360.18
2.05293	-1364.17
2.05311	-1363.15
2.05329	-1362.14
2.05347	-1361.12
2.05364	-1361.1
2.05382	-1362.09
2.054	-1355.07
2.05417	-1355.06
2.05435	-1361.04
2.05453	-1363.02
2.05471	-1367.01
2.05488	-1352.99
2.05506	-1353.98
2.05524	-1367.96
2.05542	-1365.95
2.05559	-1355.93
2.05577	-1354.91
2.05595	-1359.9
2.05613	-1352.88
2.05631	-1358.87
2.05648	-1344.85
2.05666	-1342.83
2.05684	-1350.82
2.05702	-1360.8
2.05719	-1377.79
2.05737	-1345.77
2.05755	-1354.76
2.05773	-1340.74
2.05791	-1344.72
2.05808	-1347.71
2.05826	-1342.69
2.05844	-1355.68
2.05862	-1346.66
2.0588	-1344.64
2.05898	-1333.63
2.05915	-1341.61
2.05933	-1350.6
2.05951	-1343.58
2.05969	-1346.56
2.05987	-1344.55
2.06005	-1343.53
2.06022	-1334.52
2.0604	-1338.5
2.06058	-1335.49
2.06076	-1331.47
2.06094	-1341.45
2.06112	-1326.44
2.0613	-1344.42
2.06148	-1338.41
2.06165	-1336.39
2.06183	-1335.37
2.06201	-1329.36
2.06219	-1338.34
2.06237	-1329.33
2.06255	-1341.31
2.06273	-1335.29
2.06291	-1328.28
2.06308	-1322.26
2.06326	-1339.25
2.06344	-1330.23
2.06362	-1327.22
2.0638	-1330.2
2.06398	-1331.18
2.06416	-1332.17
2.06434	-1319.15
2.06452	-1323.14
2.0647	-1318.12
2.06488	-1327.1
2.06506	-1322.09
2.06524	-1329.07
2.06541	-1327.06
2.06559	-1318.04
2.06577	-1316.03
2.06595	-1317.01
2.06613	-1320.99
2.06631	-1312.98
2.06649	-1317.96
2.06667	-1322.95
2.06685	-1318.93
2.06703	-1315.91
2.06721	-1320.9
2.06739	-1319.88
2.06757	-1321.87
2.06775	-1314.85
2.06793	-1309.83
2.06811	-1321.82
2.06829	-1312.8
2.06847	-1310.79
2.06865	-1310.77
2.06883	-1310.76
2.06901	-1321.74
2.06919	-1310.72
2.06937	-1319.71
2.06955	-1310.69
2.06973	-1306.68
2.06991	-1307.66
2.07009	-1306.64
2.07027	-1306.63
2.07045	-1308.61
2.07063	-1305.6
2.07081	-1312.58
2.07099	-1305.57
2.07117	-1294.55
2.07135	-1305.53
2.07154	-1303.52
2.07172	-1299.5
2.0719	-1300.49
2.07208	-1302.47
2.07226	-1301.45
2.07244	-1291.44
2.07262	-1302.42
2.0728	-1298.41
2.07298	-1294.39
2.07316	-1298.38
2.07334	-1287.36
2.07352	-1285.34
2.0737	-1297.33
2.07389	-1288.31
2.07407	-1289.3
2.07425	-1290.28
2.07443	-1279.26
2.07461	-1285.25
2.07479	-1292.23
2.07497	-1275.22
2.07515	-1275.2
2.07533	-1293.18
2.07552	-1276.17
2.0757	-1282.15
2.07588	-1279.14
2.07606	-1286.12
2.07624	-1288.11
2.07642	-1284.09
2.0766	-1285.07
2.07679	-1278.06
2.07697	-1278.04
2.07715	-1277.03
2.07733	-1277.01
2.07751	-1277.99
2.07769	-1272.98
2.07788	-1272.96
2.07806	-1277.95
2.07824	-1274.93
2.07842	-1274.92
2.0786	-1267.9
2.07879	-1263.88
2.07897	-1271.87
2.07915	-1275.85
2.07933	-1271.84
2.07951	-1273.82
2.07969	-1266.8
2.07988	-1272.79
2.08006	-1266.77
2.08024	-1263.76
2.08042	-1263.74
2.08061	-1277.72
2.08079	-1249.71
2.08097	-1263.69
2.08115	-1259.68
2.08134	-1256.66
2.08152	-1263.65
2.0817	-1262.63
2.08188	-1259.61
2.08206	-1265.6
2.08225	-1260.58
2.08243	-1254.57
2.08261	-1257.55
2.0828	-1259.53
2.08298	-1262.52
2.08316	-1264.5
2.08334	-1248.49
2.08353	-1249.47
2.08371	-1254.46
2.08389	-1243.44
2.08407	-1254.42
2.08426	-1246.41
2.08444	-1256.39
2.08462	-1250.38
2.08481	-1242.36
2.08499	-1259.34
2.08517	-1244.33
2.08536	-1243.31
2.08554	-1245.3
2.08572	-1242.28
2.08591	-1236.26
2.08609	-1241.25
2.08627	-1240.23
2.08645	-1240.22
2.08664	-1242.2
2.08682	-1237.19
2.08701	-1238.17
2.08719	-1225.15
2.08737	-1237.14
2.08756	-1231.12
2.08774	-1234.11
2.08792	-1229.09
2.08811	-1239.07
2.08829	-1232.06
2.08847	-1230.04
2.08866	-1231.03
2.08884	-1231.01
2.08903	-1231.99
2.08921	-1230.98
2.08939	-1226.96
2.08958	-1222.95
2.08976	-1225.93
2.08994	-1221.92
2.09013	-1227.9
2.09031	-1218.88
2.0905	-1225.87
2.09068	-1219.85
2.09086	-1222.84
2.09105	-1221.82
2.09123	-1221.8
2.09142	-1217.79
2.0916	-1220.77
2.09179	-1218.76
2.09197	-1214.74
2.09215	-1206.73
2.09234	-1204.71
2.09252	-1201.69
2.09271	-1215.68
2.09289	-1214.66
2.09308	-1209.65
2.09326	-1205.63
2.09345	-1207.61
2.09363	-1204.6
2.09382	-1204.58
2.094	-1209.57
2.09418	-1208.55
2.09437	-1209.54
2.09455	-1199.52
2.09474	-1206.5
2.09492	-1197.49
2.09511	-1192.47
2.09529	-1209.46
2.09548	-1200.44
2.09566	-1190.42
2.09585	-1192.41
2.09603	-1203.39
2.09622	-1195.38
2.0964	-1192.36
2.09659	-1185.34
2.09678	-1189.33
2.09696	-1194.31
2.09715	-1189.3
2.09733	-1192.28
2.09752	-1186.27
2.0977	-1196.25
2.09789	-1188.23
2.09807	-1184.22
2.09826	-1183.2
2.09844	-1186.19
2.09863	-1187.17
2.09881	-1188.15
2.099	-1175.14
2.09919	-1184.12
2.09937	-1178.11
2.09956	-1182.09
2.09974	-1184.08
2.09993	-1173.06
2.10011	-1186.04
2.1003	-1177.03
2.10049	-1176.01
2.10067	-1170
2.10086	-1173.98
2.10104	-1173.96
2.10123	-1167.95
2.10142	-1168.93
2.1016	-1168.92
2.10179	-1170.9
2.10198	-1173.88
2.10216	-1173.87
2.10235	-1166.85
2.10253	-1161.84
2.10272	-1169.82
2.10291	-1174.81
2.10309	-1164.79
2.10328	-1168.77
2.10347	-1165.76
2.10365	-1164.74
2.10384	-1164.73
2.10403	-1162.71
2.10421	-1162.69
2.1044	-1160.68
2.10459	-1167.66
2.10477	-1164.65
2.10496	-1161.63
2.10515	-1162.62
2.10533	-1151.6
2.10552	-1157.58
2.10571	-1158.57
2.10589	-1151.55
2.10608	-1152.54
2.10627	-1155.52
2.10645	-1154.5
2.10664	-1151.49
2.10683	-1154.47
2.10702	-1149.46
2.1072	-1147.44
2.10739	-1152.42
2.10758	-1151.41
2.10776	-1146.39
2.10795	-1147.38
2.10814	-1143.36
2.10833	-1150.35
2.10851	-1146.33
2.1087	-1136.31
2.10889	-1144.3
2.10908	-1147.28
2.10926	-1141.27
2.10945	-1138.25
2.10964	-1139.23
2.10983	-1138.22
2.11001	-1139.2
2.1102	-1129.19
2.11039	-1132.17
2.11058	-1132.16
2.11077	-1139.14
2.11095	-1129.12
2.11114	-1134.11
2.11133	-1128.09
2.11152	-1122.08
2.11171	-1133.06
2.11189	-1127.04
2.11208	-1128.03
2.11227	-1121.01
2.11246	-1125
2.11265	-1129.98
2.11283	-1118.96
2.11302	-1125.95
2.11321	-1117.93
2.1134	-1118.92
2.11359	-1113.9
2.11378	-1122.89
2.11396	-1115.87
2.11415	-1115.85
2.11434	-1118.84
2.11453	-1111.82
2.11472	-1105.81
2.11491	-1112.79
2.1151	-1114.77
2.11528	-1113.76
2.11547	-1099.74
2.11566	-1114.73
2.11585	-1115.71
2.11604	-1109.7
2.11623	-1107.68
2.11642	-1103.66
2.11661	-1104.65
2.11679	-1093.63
2.11698	-1110.62
2.11717	-1103.6
2.11736	-1104.58
2.11755	-1097.57
2.11774	-1104.55
2.11793	-1105.54
2.11812	-1104.52
2.11831	-1097.5
2.1185	-1093.49
2.11869	-1092.47
2.11888	-1091.46
2.11907	-1085.44
2.11925	-1090.43
2.11944	-1097.41
2.11963	-1085.39
2.11982	-1090.38
2.12001	-1089.36
2.1202	-1093.35
2.12039	-1080.33
2.12058	-1088.31
2.12077	-1082.3
2.12096	-1086.28
2.12115	-1085.27
2.12134	-1078.25
2.12153	-1079.24
2.12172	-1085.22
2.12191	-1084.2
2.1221	-1083.19
2.12229	-1071.17
2.12248	-1077.16
2.12267	-1076.14
2.12286	-1079.12
2.12305	-1078.11
2.12324	-1068.09
2.12343	-1075.08
2.12362	-1070.06
2.12381	-1063.04
2.124	-1073.03
2.12419	-1068.01
2.12438	-1066
2.12457	-1069.98
2.12476	-1062.97
2.12495	-1062.95
2.12514	-1056.93
2.12533	-1065.92
2.12553	-1057.9
2.12572	-1062.89
2.12591	-1057.87
2.1261	-1042.85
2.12629	-1054.84
2.12648	-1059.82
2.12667	-1053.81
2.12686	-1057.79
2.12705	-1045.78
2.12724	-1055.76
2.12743	-1054.74
2.12762	-1048.73
2.12782	-1045.71
2.12801	-1045.7
2.1282	-1044.68
2.12839	-1041.66
2.12858	-1043.65
2.12877	-1047.63
2.12896	-1044.62
2.12915	-1045.6
2.12935	-1044.58
2.12954	-1033.57
2.12973	-1039.55
2.12992	-1035.54
2.13011	-1037.52
2.1303	-1034.51
2.13049	-1034.49
2.13069	-1037.47
2.13088	-1036.46
2.13107	-1035.44
2.13126	-1026.43
2.13145	-1028.41
2.13164	-1020.39
2.13184	-1031.38
2.13203	-1018.36
2.13222	-1029.35
2.13241	-1026.33
2.1326	-1027.32
2.13279	-1025.3
2.13299	-1025.28
2.13318	-1020.27
2.13337	-1022.25
2.13356	-1017.24
2.13376	-1021.22
2.13395	-1017.2
2.13414	-1015.19
2.13433	-1018.17
2.13452	-1017.16
2.13472	-1016.14
2.13491	-1010.12
2.1351	-1014.11
2.13529	-1010.09
2.13549	-1012.08
2.13568	-1011.06
2.13587	-1010.05
2.13606	-1009.03
2.13626	-1005.01
2.13645	-1007
2.13664	-1001.98
2.13683	-1004.97
2.13703	-1003.95
2.13722	-1000.93
2.13741	-1001.92
2.13761	-993.903
2.1378	-993.887
2.13799	-998.871
2.13818	-991.855
2.13838	-996.839
2.13857	-993.823
2.13876	-994.808
2.13896	-993.792
2.13915	-992.776
2.13934	-991.76
2.13954	-986.744
2.13973	-989.728
2.13992	-988.712
2.14012	-987.697
2.14031	-986.681
2.1405	-985.665
2.1407	-978.649
2.14089	-983.633
2.14108	-982.617
2.14128	-981.601
2.14147	-980.586
2.14166	-976.57
2.14186	-978.554
2.14205	-977.538
2.14225	-975.522
2.14244	-975.506
2.14263	-974.49
2.14283	-973.475
2.14302	-971.459
2.14322	-971.443
2.14341	-970.427
2.1436	-964.411
2.1438	-965.395
2.14399	-967.379
2.14419	-966.364
2.14438	-965.348
2.14457	-964.332
2.14477	-963.316
2.14496	-962.3
2.14516	-961.284
2.14535	-960.268
2.14555	-959.253
2.14574	-958.237
2.14593	-957.221
2.14613	-956.205
2.14632	-955.189
2.14652	-954.173
2.14671	-953.157
2.14691	-952.141
2.1471	-951.126
2.1473	-950.11
2.14749	-949.094
2.14769	-948.078
2.14788	-947.062
2.14808	-946.046
2.14827	-945.03
2.14847	-944.015
2.14866	-942.999
2.14886	-941.983
2.14905	-940.967
2.14925	-939.951
2.14944	-938.935
2.14964	-937.919
2.14983	-936.904
2.15003	-935.888
2.15022	-934.872
2.15042	-933.856
2.15061	-932.84
2.15081	-931.824
2.151	-930.808
2.1512	-929.793
2.15139	-928.777
2.15159	-927.761
2.15179	-925.745
2.15198	-925.729
2.15218	-924.713
2.15237	-923.697
2.15257	-922.681
2.15276	-921.666
2.15296	-920.65
2.15315	-919.634
2.15335	-918.618
2.15355	-917.602
2.15374	-916.586
2.15394	-915.57
2.15413	-914.555
2.15433	-913.539
2.15453	-912.523
2.15472	-911.507
2.15492	-910.491
2.15512	-909.475
2.15531	-908.459
2.15551	-907.444
2.1557	-906.428
2.1559	-905.412
2.1561	-904.396
2.15629	-903.38
2.15649	-902.364
2.15669	-901.348
2.15688	-900.333
2.15708	-899.317
2.15728	-898.301
2.15747	-897.285
2.15767	-896.269
2.15787	-895.253
2.15806	-894.237
2.15826	-893.221
2.15846	-892.206
2.15865	-891.19
2.15885	-890.174
2.15905	-889.158
2.15924	-888.142
2.15944	-887.126
2.15964	-886.11
2.15984	-885.095
2.16003	-881.079
2.16023	-883.063
2.16043	-882.047
2.16062	-881.031
2.16082	-880.015
2.16102	-878.999
2.16122	-877.984
2.16141	-876.968
2.16161	-875.952
2.16181	-874.936
2.16201	-873.92
2.1622	-872.904
2.1624	-871.888
2.1626	-870.873
2.1628	-869.857
2.16299	-868.841
2.16319	-867.825
2.16339	-866.809
2.16359	-865.793
2.16378	-864.777
2.16398	-863.762
2.16418	-862.746
2.16438	-861.73
2.16458	-860.714
2.16477	-859.698
2.16497	-858.682
2.16517	-857.666
2.16537	-856.651
2.16557	-855.635
2.16577	-854.619
2.16596	-853.603
2.16616	-852.587
2.16636	-851.571
2.16656	-850.555
2.16676	-849.539
2.16696	-848.524
2.16715	-847.508
2.16735	-846.492
2.16755	-845.476
2.16775	-844.46
2.16795	-843.444
2.16815	-842.428
2.16835	-841.413
2.16854	-840.397
2.16874	-839.381
2.16894	-838.365
2.16914	-837.349
2.16934	-836.333
2.16954	-835.317
2.16974	-834.302
2.16994	-833.286
2.17014	-832.27
2.17034	-831.254
2.17053	-830.238
2.17073	-829.222
2.17093	-828.206
2.17113	-827.191
2.17133	-826.175
2.17153	-825.159
2.17173	-824.143
2.17193	-823.127
2.17213	-822.111
2.17233	-821.095
2.17253	-820.079
2.17273	-819.064
2.17293	-818.048
2.17313	-817.032
2.17333	-816.016
2.17353	-815
2.17373	-813.984
2.17393	-812.969
2.17413	-811.953
2.17433	-810.937
2.17453	-809.921
2.17473	-808.905
2.17493	-807.889
2.17513	-806.873
2.17533	-805.857
2.17553	-804.841
2.17573	-803.826
2.17593	-802.81
2.17613	-801.794
2.17633	-800.778
2.17653	-799.762
2.17673	-798.746
2.17693	-797.731
2.17713	-796.715
2.17733	-795.699
2.17753	-794.683
2.17773	-793.667
2.17792	-789.467
2.17812	-784.468
2.17832	-782.879
2.17852	-779.563
2.17872	-781.611
2.17892	-781.296
2.17912	-792.436
2.17932	-798.804
2.17952	-804.581
2.17972	-816.722
2.17992	-834
2.18012	-839.693
2.18032	-851.934
2.18052	-864.175
2.18072	-866.416
2.18092	-873.657
2.18112	-882.898
2.18132	-896.139
2.18152	-914.38
2.18172	-912.621
2.18192	-925.862
2.18212	-935.103
2.18232	-950.344
2.18253	-958.585
2.18273	-970.826
2.18293	-963.067
2.18313	-974.308
2.18333	-983.549
2.18353	-987.79
2.18373	-1009.03
2.18393	-1019.27
2.18413	-1013.51
2.18433	-1020.75
2.18453	-1029
2.18473	-1044.24
2.18493	-1045.48
2.18514	-1053.72
2.18534	-1066.96
2.18554	-1066.2
2.18574	-1083.44
2.18594	-1085.68
2.18614	-1079.92
2.18634	-1096.16
2.18654	-1108.41
2.18675	-1112.65
2.18695	-1114.89
2.18715	-1120.13
2.18735	-1124.37
2.18755	-1132.61
2.18775	-1132.85
2.18795	-1148.09
2.18816	-1151.33
2.18836	-1159.57
2.18856	-1153.82
2.18876	-1172.06
2.18896	-1173.3
2.18916	-1179.54
2.18937	-1186.78
2.18957	-1186.02
2.18977	-1192.26
2.18997	-1201.5
2.19017	-1205.74
2.19038	-1207.98
2.19058	-1216.22
2.19078	-1221.47
2.19098	-1222.71
2.19118	-1231.95
2.19139	-1236.19
2.19159	-1237.43
2.19179	-1240.67
2.19199	-1250.91
2.1922	-1250.15
2.1924	-1255.39
2.1926	-1255.63
2.1928	-1260.88
2.19301	-1277.12
2.19321	-1271.36
2.19341	-1283.6
2.19361	-1279.84
2.19382	-1285.08
2.19402	-1287.32
2.19422	-1295.56
2.19443	-1300.8
2.19463	-1301.04
2.19483	-1309.29
2.19503	-1317.53
2.19524	-1315.77
2.19544	-1315.01
2.19564	-1321.25
2.19585	-1324.49
2.19605	-1325.73
2.19625	-1319.97
2.19646	-1340.21
2.19666	-1343.45
2.19686	-1341.7
2.19707	-1346.94
2.19727	-1350.18
2.19747	-1346.42
2.19768	-1354.66
2.19788	-1358.9
2.19808	-1360.14
2.19829	-1370.38
2.19849	-1372.62
2.19869	-1368.86
2.1989	-1372.11
2.1991	-1378.35
2.19931	-1375.59
2.19951	-1383.83
2.19971	-1389.07
2.19992	-1383.31
2.20012	-1388.55
2.20033	-1394.79
2.20053	-1400.03
2.20073	-1397.27
2.20094	-1404.52
2.20114	-1394.76
2.20135	-1405
2.20155	-1407.24
2.20175	-1413.48
2.20196	-1416.72
2.20216	-1402.96
2.20237	-1418.2
2.20257	-1419.44
2.20278	-1427.68
2.20298	-1413.93
2.20319	-1426.17
2.20339	-1425.41
2.20359	-1429.65
2.2038	-1427.89
2.204	-1440.13
2.20421	-1444.37
2.20441	-1433.61
2.20462	-1438.85
2.20482	-1443.09
2.20503	-1444.34
2.20523	-1439.58
2.20544	-1439.82
2.20564	-1442.06
2.20585	-1454.3
2.20605	-1451.54
2.20626	-1454.78
2.20646	-1457.02
2.20667	-1455.26
2.20687	-1456.5
2.20708	-1464.75
2.20728	-1458.99
2.20749	-1463.23
2.2077	-1467.47
2.2079	-1466.71
2.20811	-1465.95
2.20831	-1466.19
2.20852	-1460.43
2.20872	-1469.67
2.20893	-1465.91
2.20913	-1467.16
2.20934	-1481.4
2.20955	-1479.64
2.20975	-1471.88
2.20996	-1466.12
2.21016	-1476.36
2.21037	-1484.6
2.21058	-1476.84
2.21078	-1492.08
2.21099	-1475.32
2.21119	-1487.57
2.2114	-1477.81
2.21161	-1490.05
2.21181	-1488.29
2.21202	-1491.53
2.21222	-1483.77
2.21243	-1494.01
2.21264	-1492.25
2.21284	-1490.49
2.21305	-1490.73
2.21326	-1499.98
2.21346	-1496.22
2.21367	-1496.46
2.21388	-1502.7
2.21408	-1491.94
2.21429	-1496.18
2.2145	-1497.42
2.2147	-1503.66
2.21491	-1505.9
2.21512	-1495.14
2.21532	-1503.39
2.21553	-1502.63
2.21574	-1504.87
2.21595	-1505.11
2.21615	-1504.35
2.21636	-1502.59
2.21657	-1502.83
2.21677	-1497.07
2.21698	-1504.31
2.21719	-1513.55
2.2174	-1515.8
2.2176	-1505.04
2.21781	-1505.28
2.21802	-1509.52
2.21823	-1508.76
2.21843	-1513
2.21864	-1517.24
2.21885	-1509.48
2.21906	-1511.72
2.21926	-1510.96
2.21947	-1508.21
2.21968	-1511.45
2.21989	-1512.69
2.2201	-1511.93
2.2203	-1513.17
2.22051	-1511.41
2.22072	-1512.65
2.22093	-1512.89
2.22114	-1521.13
2.22134	-1521.37
2.22155	-1511.61
2.22176	-1513.86
2.22197	-1516.1
2.22218	-1514.34
2.22238	-1518.58
2.22259	-1519.82
2.2228	-1524.06
2.22301	-1515.3
2.22322	-1521.54
2.22343	-1513.78
2.22364	-1521.03
2.22384	-1522.27
2.22405	-1515.51
2.22426	-1524.75
2.22447	-1518.99
2.22468	-1519.23
2.22489	-1521.47
2.2251	-1514.71
2.22531	-1515.95
2.22551	-1520.19
2.22572	-1525.43
2.22593	-1524.68
2.22614	-1518.92
2.22635	-1524.16
2.22656	-1519.4
2.22677	-1516.64
2.22698	-1519.88
2.22719	-1530.12
2.2274	-1520.36
2.22761	-1525.6
2.22782	-1510.84
2.22802	-1524.09
2.22823	-1521.33
2.22844	-1533.57
2.22865	-1522.81
2.22886	-1522.05
2.22907	-1518.29
2.22928	-1512.53
2.22949	-1522.77
2.2297	-1517.01
2.22991	-1524.25
2.23012	-1522.5
2.23033	-1520.74
2.23054	-1518.98
2.23075	-1515.22
2.23096	-1522.46
2.23117	-1525.7
2.23138	-1523.94
2.23159	-1529.18
2.2318	-1530.42
2.23201	-1516.66
2.23222	-1533.91
2.23243	-1526.15
2.23264	-1526.39
2.23285	-1525.63
2.23306	-1521.87
2.23327	-1520.11
2.23348	-1522.35
2.2337	-1523.59
2.23391	-1529.83
2.23412	-1526.07
2.23433	-1532.32
2.23454	-1527.56
2.23475	-1518.8
2.23496	-1533.04
2.23517	-1520.28
2.23538	-1530.52
2.23559	-1522.76
2.2358	-1530
2.23601	-1525.24
2.23623	-1522.48
2.23644	-1525.73
2.23665	-1530.97
2.23686	-1525.21
2.23707	-1531.45
2.23728	-1518.69
2.23749	-1522.93
2.2377	-1525.17
2.23792	-1520.41
2.23813	-1513.65
2.23834	-1516.89
2.23855	-1519.14
2.23876	-1523.38
2.23897	-1517.62
2.23918	-1516.86
2.2394	-1523.1
2.23961	-1515.34
2.23982	-1524.58
2.24003	-1509.82
2.24024	-1514.06
2.24046	-1518.3
2.24067	-1519.55
2.24088	-1502.79
2.24109	-1520.03
2.2413	-1515.27
2.24152	-1510.51
2.24173	-1522.75
2.24194	-1512.99
2.24215	-1519.23
2.24236	-1508.47
2.24258	-1513.71
2.24279	-1508.96
2.243	-1514.2
2.24321	-1510.44
2.24343	-1512.68
2.24364	-1505.92
2.24385	-1510.16
2.24406	-1520.4
2.24428	-1503.64
2.24449	-1511.88
2.2447	-1511.12
2.24491	-1516.37
2.24513	-1506.61
2.24534	-1513.85
2.24555	-1508.09
2.24577	-1510.33
2.24598	-1513.57
2.24619	-1504.81
2.24641	-1511.05
2.24662	-1513.29
2.24683	-1511.53
2.24705	-1509.78
2.24726	-1514.02
2.24747	-1506.26
2.24768	-1515.5
2.2479	-1505.74
2.24811	-1506.98
2.24833	-1517.22
2.24854	-1499.46
2.24875	-1509.7
2.24897	-1503.94
2.24918	-1512.19
2.24939	-1508.43
2.24961	-1512.67
2.24982	-1503.91
2.25003	-1506.15
2.25025	-1510.39
2.25046	-1509.63
2.25068	-1495.87
2.25089	-1510.11
2.2511	-1501.35
2.25132	-1503.6
2.25153	-1494.84
2.25175	-1508.08
2.25196	-1507.32
2.25217	-1491.56
2.25239	-1497.8
2.2526	-1501.04
2.25282	-1498.28
2.25303	-1509.52
2.25325	-1500.76
2.25346	-1501.01
2.25368	-1500.25
2.25389	-1498.49
2.2541	-1495.73
2.25432	-1499.97
2.25453	-1493.21
2.25475	-1501.45
2.25496	-1503.69
2.25518	-1496.93
2.25539	-1500.17
2.25561	-1498.41
2.25582	-1497.66
2.25604	-1495.9
2.25625	-1489.14
2.25647	-1496.38
2.25668	-1496.62
2.2569	-1493.86
2.25711	-1494.1
2.25733	-1495.34
2.25754	-1495.58
2.25776	-1502.82
2.25798	-1492.07
2.25819	-1487.31
2.25841	-1494.55
2.25862	-1487.79
2.25884	-1495.03
2.25905	-1497.27
2.25927	-1488.51
2.25948	-1482.75
2.2597	-1488.99
2.25992	-1481.23
2.26013	-1488.48
2.26035	-1498.72
2.26056	-1488.96
2.26078	-1490.2
2.261	-1488.44
2.26121	-1483.68
2.26143	-1488.92
2.26164	-1483.16
2.26186	-1488.4
2.26208	-1486.64
2.26229	-1485.89
2.26251	-1490.13
2.26272	-1481.37
2.26294	-1486.61
2.26316	-1485.85
2.26337	-1486.09
2.26359	-1492.33
2.26381	-1476.57
2.26402	-1478.81
2.26424	-1474.05
2.26446	-1475.3
2.26467	-1478.54
2.26489	-1484.78
2.26511	-1479.02
2.26532	-1481.26
2.26554	-1478.5
2.26576	-1481.74
2.26598	-1476.98
2.26619	-1466.22
2.26641	-1470.46
2.26663	-1477.71
2.26684	-1475.95
2.26706	-1479.19
2.26728	-1470.43
2.2675	-1478.67
2.26771	-1469.91
2.26793	-1471.15
2.26815	-1477.39
2.26837	-1474.63
2.26858	-1476.87
2.2688	-1462.12
2.26902	-1475.36
2.26924	-1469.6
2.26945	-1470.84
2.26967	-1462.08
2.26989	-1472.32
2.27011	-1465.56
2.27032	-1467.8
2.27054	-1468.04
2.27076	-1468.28
2.27098	-1468.53
2.2712	-1467.77
2.27141	-1467.01
2.27163	-1462.25
2.27185	-1462.49
2.27207	-1460.73
2.27229	-1463.97
2.27251	-1463.21
2.27272	-1459.45
2.27294	-1460.69
2.27316	-1458.94
2.27338	-1460.18
2.2736	-1456.42
2.27382	-1458.66
2.27403	-1451.9
2.27425	-1457.14
2.27447	-1456.38
2.27469	-1449.62
2.27491	-1454.86
2.27513	-1454.1
2.27535	-1453.35
2.27557	-1447.59
2.27579	-1451.83
2.276	-1451.07
2.27622	-1450.31
2.27644	-1449.55
2.27666	-1448.79
2.27688	-1448.03
2.2771	-1447.27
2.27732	-1444.51
2.27754	-1445.76
2.27776	-1445
2.27798	-1441.24
2.2782	-1443.48
2.27842	-1442.72
2.27864	-1441.96
2.27886	-1441.2
2.27907	-1440.44
2.27929	-1434.68
2.27951	-1438.92
2.27973	-1438.17
2.27995	-1437.41
2.28017	-1436.65
2.28039	-1435.89
2.28061	-1435.13
2.28083	-1434.37
2.28105	-1433.61
2.28127	-1432.85
2.28149	-1432.09
2.28171	-1431.33
2.28193	-1430.58
2.28215	-1429.82
2.28237	-1429.06
2.2826	-1428.3
2.28282	-1427.54
2.28304	-1426.78
2.28326	-1426.02
2.28348	-1425.26
2.2837	-1424.5
2.28392	-1421.74
2.28414	-1422.99
2.28436	-1422.23
2.28458	-1421.47
2.2848	-1420.71
2.28502	-1419.95
2.28524	-1419.19
2.28546	-1418.43
2.28568	-1417.67
2.28591	-1416.91
2.28613	-1416.15
2.28635	-1415.4
2.28657	-1414.64
2.28679	-1413.88
2.28701	-1413.12
2.28723	-1412.36
2.28745	-1411.6
2.28768	-1410.84
2.2879	-1410.08
2.28812	-1409.32
2.28834	-1408.56
2.28856	-1407.81
2.28878	-1407.05
2.289	-1406.29
2.28923	-1405.53
2.28945	-1404.77
2.28967	-1404.01
2.28989	-1403.25
2.29011	-1402.49
2.29033	-1401.73
2.29056	-1400.97
2.29078	-1400.21
2.291	-1399.46
2.29122	-1398.7
2.29145	-1397.94
2.29167	-1397.18
2.29189	-1396.42
2.29211	-1395.66
2.29233	-1394.9
2.29256	-1394.14
2.29278	-1393.38
2.293	-1392.63
2.29322	-1391.87
2.29345	-1391.11
2.29367	-1390.35
2.29389	-1389.59
2.29411	-1388.83
2.29434	-1388.07
2.29456	-1387.31
2.29478	-1386.55
2.29501	-1385.79
2.29523	-1385.03
2.29545	-1384.28
2.29567	-1383.52
2.2959	-1382.76
2.29612	-1382
2.29634	-1381.24
2.29657	-1380.48
2.29679	-1379.72
2.29701	-1378.96
2.29724	-1378.2
2.29746	-1377.44
2.29768	-1376.69
2.29791	-1375.93
2.29813	-1375.17
2.29835	-1374.41
2.29858	-1373.65
2.2988	-1372.89
2.29902	-1372.13
2.29925	-1371.37
2.29947	-1370.61
2.2997	-1369.85
2.29992	-1369.1
2.30014	-1368.34
2.30037	-1367.58
2.30059	-1366.82
2.30082	-1366.06
2.30104	-1365.3
2.30126	-1364.54
2.30149	-1363.78
2.30171	-1363.02
2.30194	-1362.26
2.30216	-1361.51
2.30239	-1360.75
2.30261	-1359.99
2.30283	-1359.23
2.30306	-1358.47
2.30328	-1357.71
2.30351	-1356.95
2.30373	-1356.19
2.30396	-1355.43
2.30418	-1354.67
2.30441	-1353.92
2.30463	-1353.16
2.30486	-1352.4
2.30508	-1351.64
2.30531	-1350.88
2.30553	-1350.12
2.30576	-1349.36
2.30598	-1348.6
2.30621	-1347.84
2.30643	-1347.08
2.30666	-1346.33
2.30688	-1345.57
2.30711	-1344.81
2.30733	-1344.05
2.30756	-1343.29
2.30778	-1342.53
2.30801	-1341.77
2.30823	-1341.01
2.30846	-1340.25
2.30869	-1339.49
2.30891	-1338.74
2.30914	-1337.98
2.30936	-1337.22
2.30959	-1336.46
2.30981	-1335.7
2.31004	-1334.94
2.31027	-1334.18
2.31049	-1333.42
2.31072	-1332.66
2.31094	-1331.9
2.31117	-1331.15
2.3114	-1330.39
2.31162	-1329.63
2.31185	-1328.87
2.31208	-1328.11
2.3123	-1327.35
2.31253	-1326.59
2.31275	-1325.83
2.31298	-1325.07
2.31321	-1324.31
2.31343	-1323.56
2.31366	-1322.8
2.31389	-1322.04
2.31411	-1321.28
2.31434	-1320.52
2.31457	-1319.76
2.31479	-1319
2.31502	-1318.24
2.31525	-1317.48
2.31548	-1316.72
2.3157	-1315.97
2.31593	-1315.21
2.31616	-1314.45
2.31638	-1313.69
2.31661	-1312.93
2.31684	-1312.17
2.31707	-1311.41
2.31729	-1310.65
2.31752	-1309.89
2.31775	-1309.13
2.31798	-1308.38
2.3182	-1307.62
2.31843	-1306.86
2.31866	-1306.1
2.31889	-1305.34
2.31911	-1304.58
2.31934	-1303.82
2.31957	-1303.06
2.3198	-1302.3
2.32003	-1301.54
2.32025	-1300.79
2.32048	-1300.03
2.32071	-1299.27
2.32094	-1298.51
2.32117	-1297.75
2.32139	-1296.99
2.32162	-1296.23
2.32185	-1295.47
2.32208	-1294.71
2.32231	-1293.95
2.32254	-1293.2
2.32277	-1292.44
2.32299	-1291.68
2.32322	-1290.92
2.32345	-1290.16
2.32368	-1289.4
2.32391	-1288.64
2.32414	-1287.88
2.32437	-1287.12
2.32459	-1286.36
2.32482	-1285.6
2.32505	-1284.85
2.32528	-1284.09
2.32551	-1283.33
2.32574	-1282.57
2.32597	-1281.81
2.3262	-1281.05
2.32643	-1280.29
2.32666	-1279.53
2.32689	-1278.77
2.32712	-1278.01
2.32735	-1277.26
2.32757	-1276.5
2.3278	-1275.74
2.32803	-1274.98
2.32826	-1274.22
2.32849	-1273.46
2.32872	-1272.7
2.32895	-1271.94
2.32918	-1271.18
2.32941	-1270.42
2.32964	-1269.67
2.32987	-1268.91
2.3301	-1268.15
2.33033	-1267.39
2.33056	-1266.63
2.33079	-1265.87
2.33102	-1265.11
2.33125	-1264.35
2.33148	-1263.59
2.33171	-1262.83
2.33194	-1262.08
2.33217	-1261.32
2.33241	-1260.56
2.33264	-1259.8
2.33287	-1259.04
2.3331	-1258.28
2.33333	-1257.52
2.33356	-1256.76
2.33379	-1256
2.33402	-1255.24
2.33425	-1254.49
2.33448	-1253.73
2.33471	-1252.97
2.33494	-1252.21
2.33517	-1251.45
2.33541	-1250.69
2.33564	-1249.93
2.33587	-1249.17
2.3361	-1248.41
2.33633	-1247.65
2.33656	-1246.9
2.33679	-1246.14
2.33702	-1245.38
2.33726	-1244.62
2.33749	-1243.86
2.33772	-1243.1
2.33795	-1242.34
2.33818	-1241.58
2.33841	-1240.82
2.33865	-1240.06
2.33888	-1239.31
2.33911	-1238.55
2.33934	-1237.79
2.33957	-1237.03
2.33981	-1236.27
2.34004	-1235.51
2.34027	-1234.75
2.3405	-1233.99
2.34073	-1233.23
2.34097	-1232.47
2.3412	-1231.72
2.34143	-1230.96
2.34166	-1230.2
2.3419	-1229.44
2.34213	-1228.68
2.34236	-1227.92
2.34259	-1227.16
2.34283	-1226.4
2.34306	-1225.64
2.34329	-1224.88
2.34352	-1224.13
2.34376	-1223.37
2.34399	-1222.61
2.34422	-1221.85
2.34446	-1221.09
2.34469	-1220.33
2.34492	-1219.57
2.34516	-1218.81
2.34539	-1218.05
2.34562	-1217.29
2.34586	-1216.54
2.34609	-1215.78
2.34632	-1215.02
2.34656	-1214.26
2.34679	-1213.5
2.34702	-1212.74
2.34726	-1211.98
2.34749	-1211.22
2.34772	-1210.46
2.34796	-1209.7
2.34819	-1208.95
2.34842	-1208.19
2.34866	-1207.43
2.34889	-1206.67
2.34913	-1205.91
2.34936	-1205.15
2.34959	-1204.39
2.34983	-1203.63
2.35006	-1202.87
2.3503	-1202.11
2.35053	-1201.36
2.35076	-1200.6
2.351	-1199.84
2.35123	-1199.08
2.35147	-1198.32
2.3517	-1197.56
2.35194	-1196.8
2.35217	-1196.04
2.35241	-1189.28
2.35264	-1194.52
2.35288	-1193.77
2.35311	-1193.01
2.35335	-1188.25
2.35358	-1191.49
2.35382	-1190.73
2.35405	-1188.97
2.35429	-1189.21
2.35452	-1188.45
2.35476	-1187.69
2.35499	-1186.93
2.35523	-1186.18
2.35546	-1185.42
2.3557	-1184.66
2.35593	-1183.9
2.35617	-1183.14
2.3564	-1182.38
2.35664	-1181.62
2.35687	-1180.86
2.35711	-1180.1
2.35734	-1179.34
2.35758	-1178.59
2.35782	-1174.83
2.35805	-1173.07
2.35829	-1176.31
2.35852	-1174.55
2.35876	-1174.79
2.359	-1172.03
2.35923	-1170.27
2.35947	-1172.51
2.3597	-1171.75
2.35994	-1167
2.36018	-1170.24
2.36041	-1169.48
2.36065	-1166.72
2.36089	-1162.96
2.36112	-1167.2
2.36136	-1160.44
2.36159	-1152.68
2.36183	-1164.92
2.36207	-1161.16
2.3623	-1163.41
2.36254	-1161.65
2.36278	-1153.89
2.36301	-1158.13
2.36325	-1158.37
2.36349	-1147.61
2.36373	-1152.85
2.36396	-1158.09
2.3642	-1154.33
2.36444	-1156.57
2.36467	-1150.81
2.36491	-1153.06
2.36515	-1153.3
2.36539	-1139.54
2.36562	-1152.78
2.36586	-1149.02
2.3661	-1137.26
2.36634	-1150.5
2.36657	-1149.74
2.36681	-1148.98
2.36705	-1147.22
2.36729	-1147.47
2.36752	-1142.71
2.36776	-1143.95
2.368	-1145.19
2.36824	-1138.43
2.36848	-1139.67
2.36871	-1129.91
2.36895	-1131.15
2.36919	-1141.39
2.36943	-1140.63
2.36967	-1131.88
2.3699	-1139.12
2.37014	-1137.36
2.37038	-1135.6
2.37062	-1136.84
2.37086	-1121.08
2.3711	-1122.32
2.37134	-1126.56
2.37157	-1132.8
2.37181	-1126.04
2.37205	-1132.29
2.37229	-1127.53
2.37253	-1130.77
2.37277	-1118.01
2.37301	-1113.25
2.37325	-1114.49
2.37348	-1109.73
2.37372	-1118.97
2.37396	-1116.21
2.3742	-1125.45
2.37444	-1111.7
2.37468	-1105.94
2.37492	-1111.18
2.37516	-1119.42
2.3754	-1121.66
2.37564	-1107.9
2.37588	-1113.14
2.37612	-1104.38
2.37636	-1106.62
2.3766	-1111.86
2.37684	-1113.11
2.37708	-1105.35
2.37732	-1108.59
2.37756	-1114.83
2.3778	-1110.07
2.37804	-1097.31
2.37828	-1110.55
2.37852	-1096.79
2.37876	-1101.03
2.379	-1096.27
2.37924	-1109.52
2.37948	-1093.76
2.37972	-1102
2.37996	-1086.24
2.3802	-1101.48
2.38044	-1086.72
2.38068	-1082.96
2.38092	-1086.2
2.38116	-1070.44
2.3814	-1077.68
2.38164	-1083.93
2.38188	-1093.17
2.38212	-1084.41
2.38236	-1081.65
2.3826	-1082.89
2.38284	-1093.13
2.38309	-1091.37
2.38333	-1083.61
2.38357	-1064.85
2.38381	-1075.09
2.38405	-1062.34
2.38429	-1080.58
2.38453	-1072.82
2.38477	-1068.06
2.38502	-1067.3
2.38526	-1066.54
2.3855	-1066.78
2.38574	-1070.02
2.38598	-1059.26
2.38622	-1059.5
2.38647	-1060.75
2.38671	-1050.99
2.38695	-1055.23
2.38719	-1061.47
2.38743	-1065.71
2.38767	-1067.95
2.38792	-1057.19
2.38816	-1058.43
2.3884	-1057.67
2.38864	-1053.91
2.38889	-1046.16
2.38913	-1051.4
2.38937	-1034.64
2.38961	-1056.88
2.38986	-1055.12
2.3901	-1048.36
2.39034	-1038.6
2.39058	-1035.84
2.39083	-1039.08
2.39107	-1061.32
2.39131	-1027.57
2.39155	-1017.81
2.3918	-1035.05
2.39204	-1026.29
2.39228	-1029.53
2.39253	-1028.77
2.39277	-1043.01
2.39301	-1020.25
2.39325	-1027.49
2.3935	-1040.73
2.39374	-1029.98
2.39398	-1045.22
2.39423	-1019.46
2.39447	-1019.7
2.39471	-1015.94
2.39496	-1023.18
2.3952	-1011.42
2.39545	-1008.66
2.39569	-1000.9
2.39593	-1019.14
2.39618	-1013.39
2.39642	-1004.63
2.39666	-1014.87
2.39691	-1015.11
2.39715	-998.349
2.3974	-997.59
2.39764	-1010.83
2.39788	-989.072
2.39813	-1001.31
2.39837	-991.554
2.39862	-992.795
2.39886	-982.036
2.39911	-974.277
2.39935	-1007.52
2.39959	-1015.76
2.39984	-1000
